Literature data from W.P. Abfalterer (2001) [>5.293 MeV] and R.B.  Schwartz [< 5.293 MeV]
Natural Ni (n,tot)
MeV         Barns       Error(Barns)
1.000     2.815     0.04248
1.003     2.828     0.04469
1.007     2.646     0.04229
1.010     2.819     0.04739
1.014     2.365     0.03844
1.017     2.252     0.03613
1.021     1.810     0.02997
1.025     2.006     0.03144
1.028     2.997     0.04824
1.032     2.625     0.03900
1.036     2.396     0.03551
1.039     2.717     0.04090
1.043     2.470     0.03825
1.046     3.226     0.05123
1.050     2.608     0.04054
1.054     2.203     0.03277
1.058     1.986     0.02894
1.061     2.546     0.03701
1.065     2.621     0.03582
1.069     2.027     0.02797
1.073     2.357     0.03181
1.077     2.376     0.03193
1.081     2.881     0.03963
1.085     3.657     0.05526
1.088     3.234     0.04804
1.092     2.419     0.03572
1.096     1.918     0.02887
1.100     2.350     0.03391
1.104     2.766     0.04078
1.108     2.995     0.04352
1.112     3.368     0.05432
1.117     3.192     0.05115
1.121     2.307     0.03477
1.125     2.113     0.03115
1.129     1.824     0.02736
1.133     2.519     0.03526
1.137     2.476     0.03557
1.141     2.295     0.03168
1.146     3.256     0.04720
1.150     3.151     0.04863
1.154     3.775     0.05945
1.159     3.878     0.06568
1.163     3.148     0.05098
1.167     3.552     0.05931
1.171     3.251     0.05281
1.176     2.333     0.03425
1.180     1.913     0.02858
1.185     2.557     0.03719
1.189     2.847     0.04143
1.194     2.809     0.03845
1.198     2.653     0.03707
1.203     2.644     0.03758
1.207     2.807     0.04142
1.212     3.163     0.04510
1.217     3.133     0.04598
1.221     3.057     0.04438
1.226     3.796     0.05731
1.231     3.226     0.04529
1.235     2.629     0.03800
1.240     3.472     0.05113
1.245     2.673     0.03834
1.250     2.985     0.04062
1.255     3.184     0.04736
1.260     3.100     0.04486
1.265     3.065     0.04343
1.269     2.953     0.04071
1.274     2.980     0.04162
1.279     3.023     0.04290
1.284     3.371     0.05021
1.289     3.597     0.05752
1.294     4.486     0.07318
1.300     3.447     0.05066
1.305     3.255     0.04708
1.310     3.165     0.04627
1.315     3.698     0.05553
1.320     3.731     0.05895
1.326     3.179     0.04814
1.331     3.548     0.05503
1.336     3.655     0.05709
1.342     3.263     0.05034
1.347     3.864     0.06270
1.353     4.047     0.06331
1.358     3.155     0.04715
1.363     2.412     0.03253
1.369     2.407     0.03218
1.375     3.466     0.04952
1.380     3.584     0.05464
1.386     3.124     0.04727
1.391     2.760     0.04062
1.397     2.466     0.03590
1.403     2.624     0.03839
1.409     2.652     0.03667
1.414     3.087     0.04360
1.420     2.940     0.04069
1.426     3.369     0.04891
1.432     3.350     0.05130
1.438     3.365     0.05271
1.444     2.877     0.04256
1.450     2.970     0.04529
1.456     3.228     0.04826
1.462     3.421     0.05222
1.468     3.814     0.05771
1.475     3.500     0.05305
1.481     3.052     0.04319
1.487     3.072     0.04501
1.493     3.221     0.04628
1.500     3.544     0.05311
1.506     3.508     0.05191
1.512     2.649     0.03842
1.519     3.170     0.04741
1.525     2.925     0.04426
1.532     2.847     0.04112
1.538     2.798     0.04208
1.545     2.812     0.04154
1.552     3.129     0.04746
1.559     2.915     0.04095
1.565     3.246     0.04679
1.572     3.125     0.04454
1.579     2.980     0.04100
1.586     3.057     0.04345
1.593     2.660     0.03727
1.600     2.173     0.03093
1.607     2.673     0.03880
1.614     3.641     0.05410
1.621     3.305     0.04720
1.628     3.034     0.04190
1.635     2.681     0.03547
1.643     2.644     0.03473
1.650     2.994     0.04236
1.657     3.034     0.04317
1.665     3.229     0.04503
1.672     3.649     0.05481
1.680     3.165     0.04518
1.687     2.842     0.03988
1.695     2.547     0.03525
1.702     2.925     0.04090
1.710     3.830     0.05878
1.718     3.518     0.05381
1.726     2.899     0.04235
1.734     2.880     0.04202
1.742     2.953     0.04543
1.750     2.846     0.04286
1.758     2.691     0.03948
1.766     2.673     0.03851
1.774     2.869     0.04174
1.782     2.803     0.04067
1.790     2.850     0.03951
1.799     4.024     0.06030
1.807     3.810     0.05715
1.815     3.268     0.04506
1.824     2.674     0.03534
1.832     2.555     0.03471
1.841     2.740     0.03795
1.850     2.998     0.04196
1.859     2.862     0.04112
1.867     2.365     0.03213
1.876     2.228     0.03021
1.885     2.630     0.03660
1.894     3.068     0.04516
1.903     3.160     0.04813
1.912     3.030     0.04611
1.921     2.655     0.03819
1.931     2.392     0.03471
1.940     2.586     0.03923
1.949     2.938     0.04400
1.959     2.386     0.03370
1.968     2.695     0.03945
1.978     3.113     0.04402
1.988     2.976     0.04276
1.997     2.887     0.04297
2.007     2.772     0.04117
2.017     2.853     0.04435
2.027     2.923     0.04376
2.037     3.254     0.04934
2.047     3.107     0.05171
2.057     3.000     0.04541
2.068     3.210     0.04929
2.078     2.897     0.04650
2.088     2.835     0.04465
2.099     2.919     0.04487
2.109     2.714     0.04067
2.120     3.008     0.04512
2.131     3.534     0.05795
2.142     3.354     0.05368
2.153     3.186     0.04946
2.164     2.582     0.03969
2.175     2.771     0.04157
2.186     3.146     0.05036
2.197     2.924     0.04500
2.208     2.878     0.04462
2.220     2.789     0.04174
2.231     2.971     0.04812
2.243     2.988     0.04679
2.255     2.956     0.04609
2.266     3.125     0.05234
2.278     2.969     0.04749
2.290     2.937     0.04656
2.302     3.139     0.05018
2.314     3.322     0.05503
2.326     3.106     0.04846
2.339     3.031     0.04830
2.351     3.127     0.04948
2.364     3.327     0.05239
2.377     2.872     0.04051
2.389     2.939     0.04438
2.402     3.108     0.04753
2.415     3.006     0.04730
2.428     2.844     0.04364
2.441     3.322     0.05278
2.454     3.355     0.05354
2.468     3.121     0.05010
2.481     2.807     0.04534
2.495     2.982     0.05028
2.509     2.928     0.05053
2.522     2.905     0.05118
2.536     3.309     0.05843
2.550     3.225     0.05860
2.565     3.447     0.06477
2.579     3.101     0.05508
2.593     3.205     0.05945
2.608     3.223     0.05652
2.623     3.183     0.05256
2.637     2.909     0.04830
2.652     2.768     0.04584
2.667     2.934     0.04879
2.682     2.986     0.04708
2.698     2.812     0.04718
2.713     3.011     0.05144
2.729     3.222     0.05686
2.744     3.333     0.06017
2.760     3.120     0.05377
2.776     3.475     0.06502
2.792     3.252     0.06007
2.808     3.369     0.06096
2.825     3.398     0.06208
2.841     2.849     0.04894
2.858     3.220     0.05725
2.875     3.399     0.06122
2.892     3.250     0.05915
2.909     3.355     0.06234
2.926     3.273     0.06038
2.944     3.155     0.05713
2.961     3.075     0.05650
2.979     3.757     0.06969
2.997     3.149     0.05685
3.015     3.305     0.05900
3.033     3.139     0.05579
3.051     3.203     0.05756
3.070     3.210     0.05866
3.089     3.001     0.05516
3.107     2.983     0.05572
3.127     3.143     0.05642
3.146     3.110     0.05891
3.165     3.046     0.05381
3.185     3.012     0.05715
3.205     3.464     0.06634
3.225     3.370     0.06380
3.245     3.212     0.06154
3.265     3.243     0.06218
3.286     3.214     0.06306
3.306     3.346     0.06516
3.327     3.416     0.06662
3.349     3.401     0.06801
3.370     3.456     0.06616
3.391     3.413     0.06906
3.413     3.284     0.06239
3.435     3.373     0.06344
3.457     3.504     0.06832
3.480     3.462     0.06707
3.502     3.471     0.06794
3.525     3.504     0.06801
3.548     3.559     0.07041
3.571     3.628     0.07185
3.595     3.469     0.07243
3.619     3.379     0.06683
3.643     3.429     0.06817
3.667     3.633     0.06932
3.691     3.356     0.05988
3.716     3.379     0.06377
3.741     3.354     0.06382
3.766     3.501     0.07073
3.792     3.384     0.06279
3.817     3.487     0.06329
3.843     3.459     0.06225
3.870     3.637     0.06486
3.896     3.431     0.06060
3.923     3.423     0.06486
3.950     3.480     0.06669
3.977     3.466     0.06498
4.005     3.487     0.06505
4.033     3.438     0.06587
4.061     3.511     0.06484
4.090     3.398     0.06168
4.118     3.453     0.06129
4.148     3.477     0.06324
4.177     3.411     0.06082
4.207     3.617     0.06498
4.237     3.611     0.06184
4.267     3.564     0.06654
4.298     3.403     0.06150
4.329     3.700     0.06870
4.361     3.524     0.06345
4.392     3.597     0.06335
4.424     3.593     0.06168
4.457     3.719     0.06455
4.490     3.726     0.06628
4.523     3.585     0.06636
4.556     3.670     0.06300
4.590     3.493     0.06190
4.625     3.603     0.06218
4.659     3.627     0.06480
4.694     3.655     0.06285
4.730     3.713     0.06334
4.766     3.540     0.06111
4.802     3.642     0.06308
4.839     3.619     0.06176
4.876     3.550     0.06262
4.913     3.640     0.06263
4.951     3.508     0.06134
4.990     3.736     0.06612
5.029     3.831     0.06758
5.068     3.647     0.06754
5.108     3.722     0.06785
5.148     3.764     0.06671
5.189     3.585     0.06566
5.230     3.707     0.06492
5.272     3.734     0.06128
5.280     3.825     0.06342
5.293       3.747       0.01424      
5.346       3.704       0.01451      
5.399       3.693       0.01499      
5.454       3.698       0.0139       
5.509       3.681       0.0136       
5.564       3.707       0.01376      
5.62        3.743       0.014        
5.676       3.73        0.01374      
5.733       3.736       0.01361      
5.791       3.743       0.01351      
5.849       3.741       0.01345      
5.908       3.719       0.01342      
5.967       3.74        0.0135       
6.027       3.707       0.01328      
6.088       3.707       0.0133       
6.149       3.714       0.01347      
6.211       3.737       0.0143       
6.273       3.741       0.01576      
6.336       3.72        0.01546      
6.4         3.711       0.01351      
6.464       3.678       0.01268      
6.529       3.674       0.01233      
6.595       3.7         0.01202      
6.661       3.685       0.01195      
6.728       3.657       0.01178      
6.796       3.651       0.01172      
6.864       3.64        0.01155      
6.933       3.641       0.01144      
7.003       3.649       0.01146      
7.073       3.64        0.01151      
7.144       3.598       0.01145      
7.216       3.594       0.01197      
7.289       3.606       0.0131       
7.362       3.616       0.01456      
7.436       3.596       0.01477      
7.51        3.56        0.0144       
7.586       3.579       0.01433      
7.662       3.584       0.01481      
7.739       3.559       0.0158       
7.817       3.527       0.01566      
7.896       3.537       0.01519      
7.975       3.515       0.01459      
8.055       3.526       0.01452      
8.136       3.511       0.01408      
8.218       3.494       0.01308      
8.3         3.482       0.01236      
8.384       3.47        0.01201      
8.468       3.442       0.01172      
8.553       3.436       0.01166      
8.639       3.43        0.01161      
8.726       3.428       0.01165      
8.814       3.41        0.01159      
8.902       3.397       0.0116       
8.992       3.374       0.01165      
9.082       3.378       0.01198      
9.173       3.365       0.01215      
9.266       3.363       0.01221      
9.359       3.33        0.01204      
9.453       3.314       0.01191      
9.548       3.309       0.01182      
9.644       3.295       0.01178      
9.741       3.283       0.01179      
9.838       3.296       0.01186      
9.937       3.282       0.01174      
10.04       3.251       0.01072      
10.14       3.24        0.008793     
10.24       3.211       0.008678     
10.34       3.202       0.008661     
10.45       3.196       0.00873      
10.55       3.191       0.008865     
10.66       3.175       0.008964     
10.77       3.162       0.009084     
10.87       3.152       0.009174     
10.98       3.13        0.009154     
11.09       3.108       0.00912      
11.2        3.09        0.009056     
11.32       3.078       0.008996     
11.43       3.065       0.008915     
11.55       3.052       0.008836     
11.66       3.034       0.008782     
11.78       3.022       0.008803     
11.9        3.013       0.00893      
12.02       2.993       0.009013     
12.14       2.972       0.008964     
12.26       2.948       0.008753     
12.38       2.926       0.008608     
12.51       2.918       0.008592     
12.63       2.902       0.008585     
12.76       2.893       0.008619     
12.89       2.872       0.008619     
13.02       2.854       0.008592     
13.15       2.838       0.008548     
13.28       2.819       0.008492     
13.41       2.805       0.008478     
13.55       2.779       0.008414     
13.69       2.763       0.008311     
13.82       2.75        0.008195     
13.96       2.73        0.008116     
14.1        2.722       0.008127     
14.24       2.708       0.008095     
14.39       2.683       0.008072     
14.53       2.669       0.008123     
14.68       2.654       0.008181     
14.82       2.636       0.008176     
14.97       2.621       0.008188     
15.12       2.611       0.008195     
15.28       2.602       0.008191     
15.43       2.586       0.008207     
15.58       2.567       0.008208     
15.74       2.553       0.008243     
15.9        2.547       0.008264     
16.06       2.528       0.008193     
16.22       2.521       0.008117     
16.38       2.507       0.008051     
16.55       2.489       0.007958     
16.72       2.481       0.007885     
16.88       2.47        0.007842     
17.05       2.462       0.007818     
17.22       2.447       0.007771     
17.4        2.447       0.007766     
17.57       2.429       0.007711     
17.75       2.416       0.00767      
17.93       2.413       0.007654     
18.11       2.407       0.007652     
18.29       2.405       0.007653     
18.47       2.394       0.007611     
18.66       2.392       0.007603     
18.85       2.371       0.007577     
19.04       2.369       0.007579     
19.23       2.361       0.007557     
19.42       2.355       0.007549     
19.62       2.35        0.007503     
19.81       2.341       0.007425     
20.01       2.336       0.007353     
20.21       2.34        0.007308     
20.42       2.336       0.007241     
20.62       2.324       0.007153     
20.83       2.326       0.007117     
21.04       2.325       0.007094     
21.25       2.321       0.007034     
21.46       2.318       0.006992     
21.68       2.322       0.006963     
21.9        2.309       0.006902     
22.12       2.304       0.006835     
22.34       2.303       0.006806     
22.56       2.296       0.006755     
22.79       2.302       0.006754     
23.02       2.299       0.006743     
23.25       2.29        0.006716     
23.48       2.292       0.006698     
23.72       2.295       0.006672     
23.96       2.295       0.006641     
24.2        2.301       0.006637     
24.44       2.294       0.006611     
24.69       2.286       0.006581     
24.94       2.299       0.006578     
25.19       2.294       0.006543     
25.44       2.297       0.006522     
25.7        2.288       0.006465     
25.95       2.297       0.006453     
26.21       2.304       0.006448     
26.48       2.305       0.006417     
26.74       2.304       0.006393     
27.01       2.314       0.00638      
27.28       2.317       0.006348     
27.56       2.322       0.006337     
27.84       2.322       0.006314     
28.12       2.321       0.006297     
28.4        2.328       0.006276     
28.68       2.338       0.006256     
28.97       2.343       0.006241     
29.26       2.358       0.006232     
29.56       2.364       0.006219     
29.85       2.352       0.006187     
30.15       2.357       0.006177     
30.46       2.371       0.006175     
30.76       2.378       0.006158     
31.07       2.375       0.006131     
31.38       2.387       0.006131     
31.7        2.394       0.006121     
32.02       2.4         0.006114     
32.34       2.401       0.006091     
32.67       2.404       0.006076     
32.99       2.41        0.00606      
33.33       2.417       0.006055     
33.66       2.424       0.006043     
34          2.436       0.006053     
34.34       2.443       0.006046     
34.69       2.447       0.006025     
35.03       2.456       0.006016     
35.39       2.465       0.006015     
35.74       2.469       0.006007     
36.1        2.474       0.005995     
36.46       2.48        0.005984     
36.83       2.483       0.005969     
37.2        2.483       0.005958     
37.57       2.495       0.005956     
37.95       2.508       0.005952     
38.33       2.51        0.005941     
38.72       2.511       0.005923     
39.11       2.52        0.005923     
39.5        2.523       0.005911     
39.9        2.53        0.005902     
40.3        2.531       0.005888     
40.7        2.538       0.005895     
41.11       2.542       0.005871     
41.53       2.546       0.005852     
41.94       2.553       0.005849     
42.36       2.562       0.005847     
42.79       2.567       0.00584      
43.22       2.567       0.005826     
43.65       2.57        0.00581      
44.09       2.577       0.005803     
44.54       2.576       0.005785     
44.98       2.567       0.005761     
45.44       2.575       0.005751     
45.89       2.585       0.005753     
46.35       2.589       0.005746     
46.82       2.589       0.005736     
47.29       2.586       0.005719     
47.77       2.591       0.005711     
48.25       2.594       0.005695     
48.73       2.595       0.005681     
49.22       2.592       0.005667     
49.72       2.598       0.005662     
50.22       2.593       0.005638     
50.72       2.588       0.005615     
51.23       2.586       0.005603     
51.74       2.582       0.005583     
52.26       2.588       0.005577     
52.79       2.588       0.005563     
53.32       2.584       0.005539     
53.86       2.584       0.005532     
54.4        2.582       0.005522     
54.94       2.579       0.005513     
55.5        2.574       0.005483     
56.05       2.566       0.005458     
56.62       2.562       0.005443     
57.19       2.562       0.005426     
57.76       2.549       0.0054       
58.34       2.541       0.005375     
58.93       2.549       0.00537      
59.52       2.546       0.005358     
60.12       2.539       0.00534      
60.72       2.53        0.005314     
61.33       2.522       0.005295     
61.95       2.514       0.005263     
62.57       2.504       0.005238     
63.2        2.495       0.005216     
63.84       2.488       0.005196     
64.48       2.484       0.005178     
65.13       2.478       0.005159     
65.78       2.462       0.005127     
66.44       2.451       0.0051       
67.11       2.443       0.005079     
67.78       2.436       0.005062     
68.46       2.432       0.005048     
69.15       2.419       0.005019     
69.85       2.41        0.004995     
70.55       2.393       0.004961     
71.26       2.385       0.004942     
71.97       2.375       0.004926     
72.7        2.357       0.004893     
73.43       2.35        0.004874     
74.17       2.339       0.004847     
74.91       2.327       0.004823     
75.67       2.315       0.004788     
76.43       2.302       0.004763     
77.19       2.287       0.004735     
77.97       2.271       0.004705     
78.75       2.253       0.004668     
79.54       2.248       0.004655     
80.34       2.231       0.004626     
81.15       2.214       0.004595     
81.97       2.196       0.004565     
82.79       2.182       0.004538     
83.62       2.175       0.004522     
84.46       2.156       0.00449      
85.31       2.14        0.004469     
86.17       2.125       0.004441     
87.04       2.113       0.004417     
87.91       2.095       0.004392     
88.79       2.079       0.004363     
89.69       2.067       0.004348     
90.59       2.052       0.00431      
91.5        2.043       0.004296     
92.42       2.025       0.004271     
93.35       2.01        0.004243     
94.28       1.993       0.004214     
95.23       1.972       0.004187     
96.19       1.957       0.004171     
97.16       1.942       0.004143     
98.13       1.926       0.004113     
99.12       1.908       0.004092     
100.1       1.895       0.004066     
101.1       1.881       0.004048     
102.1       1.86        0.00402      
103.2       1.842       0.004001     
104.2       1.826       0.003983     
105.2       1.818       0.003962     
106.3       1.804       0.00394      
107.4       1.783       0.003918     
108.5       1.766       0.003896     
109.5       1.749       0.003876     
110.6       1.735       0.003849     
111.8       1.718       0.003833     
112.9       1.704       0.003818     
114         1.695       0.003804     
115.2       1.675       0.003787     
116.3       1.659       0.003762     
117.5       1.645       0.003744     
118.7       1.631       0.003728     
119.9       1.62        0.003716     
121.1       1.605       0.003699     
122.3       1.589       0.00368      
123.5       1.572       0.003662     
124.8       1.556       0.003641     
126         1.542       0.003625     
127.3       1.535       0.003622     
128.6       1.52        0.00361      
129.8       1.508       0.00359      
131.1       1.498       0.003578     
132.5       1.486       0.003564     
133.8       1.47        0.003553     
135.1       1.454       0.00354      
136.5       1.442       0.003526     
137.9       1.431       0.003516     
139.3       1.415       0.003501     
140.7       1.401       0.003486     
142.1       1.394       0.00348      
143.5       1.383       0.003466     
144.9       1.369       0.003457     
146.4       1.359       0.003456     
147.9       1.347       0.003441     
149.4       1.343       0.003434     
150.9       1.33        0.003429     
152.4       1.316       0.003416     
153.9       1.31        0.003408     
155.5       1.3         0.003405     
157         1.288       0.003399     
158.6       1.277       0.00339      
160.2       1.265       0.003388     
161.8       1.257       0.00338      
163.4       1.255       0.003369     
165.1       1.246       0.00337      
166.7       1.238       0.003371     
168.4       1.227       0.003356     
170.1       1.218       0.003348     
171.8       1.21        0.003351     
173.5       1.204       0.003341     
175.3       1.196       0.00334      
177         1.19        0.003343     
178.8       1.183       0.003343     
180.6       1.173       0.003337     
182.4       1.168       0.003334     
184.3       1.165       0.003337     
186.1       1.156       0.003334     
188         1.151       0.003329     
189.9       1.144       0.003329     
191.8       1.14        0.003332     
193.7       1.135       0.003329     
195.7       1.129       0.00333      
197.6       1.128       0.003333     
199.6       1.119       0.003332     
201.6       1.116       0.003329     
203.6       1.11        0.003329     
205.7       1.108       0.003334     
207.7       1.106       0.003339     
209.8       1.099       0.003341     
211.9       1.095       0.003341     
214.1       1.093       0.003343     
216.2       1.088       0.003342     
218.4       1.084       0.003344     
220.6       1.081       0.003351     
222.8       1.08        0.003351     
225.1       1.078       0.003359     
227.3       1.072       0.003365     
229.6       1.073       0.00337      
231.9       1.07        0.003374     
234.2       1.064       0.003381     
236.6       1.065       0.003385     
239         1.065       0.003392     
241.4       1.061       0.003397     
243.8       1.062       0.003402     
246.2       1.059       0.003406     
248.7       1.059       0.003411     
251.2       1.058       0.00342      
253.7       1.056       0.003429     
256.3       1.058       0.00344      
258.9       1.057       0.003446     
261.5       1.055       0.003448     
264.1       1.049       0.003453     
266.8       1.05        0.003462     
269.4       1.049       0.00347      
272.1       1.051       0.003482     
274.9       1.049       0.003487     
277.6       1.049       0.003491     
280.4       1.049       0.003499     
283.3       1.05        0.003507     
286.1       1.047       0.003516     
289         1.049       0.003528     
291.9       1.05        0.003538     
294.8       1.047       0.00355      
297.8       1.049       0.003555     
300.8       1.052       0.003561     
303.8       1.052       0.003565     
306.8       1.055       0.003577     
309.9       1.057       0.003587     
313         1.058       0.003593     
316.2       1.058       0.003601     
319.4       1.061       0.003608     
322.6       1.063       0.00362      
325.8       1.063       0.003629     
329.1       1.068       0.003635     
332.4       1.064       0.003637     
335.7       1.062       0.003643     
339.1       1.061       0.003649     
342.5       1.065       0.003662     
346         1.068       0.003674     
349.4       1.07        0.003669     
353         1.067       0.003672     
356.5       1.068       0.003678     
360.1       1.071       0.003681     
363.7       1.078       0.003693     
367.4       1.08        0.003698     
371         1.081       0.003692     
374.8       1.08        0.003692     
378.5       1.081       0.003701     
382.3       1.083       0.003709     
386.2       1.087       0.003712     
390.1       1.087       0.003705     
394         1.084       0.003698     
398         1.087       0.003702     
402         1.091       0.003707     
406         1.092       0.003713     
410.1       1.092       0.003718     
414.2       1.097       0.00372      
418.4       1.097       0.003718     
422.6       1.103       0.003719     
426.8       1.105       0.003721     
431.1       1.106       0.003724     
435.4       1.113       0.003737     
439.8       1.113       0.003744     
444.2       1.114       0.003746     
448.7       1.117       0.003759     
453.2       1.124       0.003776     
457.8       1.125       0.003796     
462.4       1.128       0.003822     
467         1.134       0.003849     
471.7       1.137       0.003869     
476.4       1.137       0.003899     
481.2       1.135       0.003936     
486.1       1.138       0.003978     
490.9       1.142       0.004027     
495.9       1.148       0.004078     
500.9       1.156       0.01228      
505.9       1.161       0.01235      
511         1.167       0.01243      
516.1       1.174       0.01252      
521.3       1.169       0.01251      
526.5       1.165       0.01252      
531.8       1.17        0.0126       
537.2       1.175       0.0127       
542.6       1.18        0.01281      
548         1.182       0.01289      
553.5       1.185       0.01299      
559.1       1.187       0.01309      
