Literature data from W.P.Poenitz (1983) & Finlay et. al (1993)
Natural Sn (n,tot)
MeV         cs(barns)   cs_error(barns) 
1.817       5.672       .0643
1.856       5.625       .05908      
1.896       5.607       .0589       
1.938       5.548       .05827      
1.981       5.457       .05732      
2.025       5.426       .05445      
2.071       5.464       .05298      
2.118       5.331       .0535       
2.167       5.342       .05361      
2.218       5.282       .05301      
2.271       5.197       .04829      
2.325       5.127       .04764      
2.382       5.092       .04731      
2.441       4.985       .04631      
2.502       4.999       .04645      
2.565       4.969       .04617      
2.631       4.899       .04552      
2.699       4.788       .04449      
2.77        4.743       .04407      
2.844       4.726       .04391      
2.921       4.678       .04347      
3.001       4.572       .04248      
3.084       4.521       .04201      
3.171       4.505       .04186      
3.262       4.459       .04143      
3.357       4.419       .04106      
3.456       4.316       .0401       
3.559       4.293       .03989      
3.667       4.305       .04         
3.78        4.316       .0401       
3.899       4.269       .03966      
4.023       4.302       .04318      
4.154       4.317       .0467       
4.29        4.287       .05361      
4.434       4.279       .06088      
4.585       4.19        .06087      
4.744       4.224       .06502      
4.911       4.278       .06464      
5.087       4.324       .06533      
5.273       4.164       .06409      
5.2925       4.1968       0.0141
5.3457       4.1846      0.01397
5.3994       4.1872      0.01384
5.4537       4.1803       0.0136
5.5085       4.1742      0.01345
5.5639       4.1985       0.0135
5.6198       4.1842      0.01349
5.6763       4.1793      0.01331
5.7333       4.1901      0.01308
 5.791       4.1519      0.01288
5.8492       4.1504      0.01275
5.9079       4.1785      0.01292
5.9673       4.1716       0.0127
6.0273       4.1983      0.01269
6.0879       4.1917      0.01266
 6.149       4.1625      0.01254
6.2108       4.1658      0.01251
6.2733       4.1663      0.01258
6.3363       4.1894      0.01248
   6.4       4.1906      0.01245
6.4643       4.1797       0.0122
6.5293       4.1753      0.01224
6.5949       4.1876      0.01218
6.6612       4.2066      0.01219
6.7281       4.1986      0.01212
6.7958       4.2119       0.0122
6.8641       4.2038       0.0121
 6.933       4.2025      0.01205
7.0027       4.2519      0.01215
7.0731        4.241      0.01221
7.1442       4.2605      0.01233
 7.216       4.2349      0.01255
7.2885       4.2671      0.01269
7.3618       4.2532      0.01286
7.4358       4.2913      0.01303
7.5105        4.269      0.01286
 7.586       4.3128      0.01283
7.6622       4.3159      0.01288
7.7392       4.3148      0.01311
 7.817        4.328       0.0133
7.8956       4.3459      0.01338
7.9749       4.3337      0.01314
 8.055       4.3533      0.01307
 8.136       4.3702      0.01318
8.2178       4.3916      0.01319
8.3004       4.4028      0.01316
8.3838       4.4115      0.01317
 8.468       4.4285      0.01321
8.5532       4.4391      0.01326
8.6391       4.4222      0.01334
8.7259       4.4697      0.01354
8.8136       4.4574      0.01355
8.9022       4.4779      0.01359
8.9917       4.5221      0.01376
9.0821       4.4906      0.01385
9.1733       4.5243      0.01397
9.2655       4.5316      0.01405
9.3586       4.5604      0.01417
9.4527       4.5315      0.01419
9.5477        4.553      0.01427
9.6437         4.57       0.0144
9.7406       4.5563      0.01448
9.8385        4.586      0.01462
9.9374       4.5856      0.01467
10.037       4.5941      0.01483
10.138       4.6309      0.01502
 10.24       4.6513      0.01512
10.343       4.6272      0.01518
10.447       4.6569      0.01524
10.552       4.6312       0.0153
10.658       4.6254      0.01539
10.765       4.6313      0.01555
10.873       4.6629      0.01572
10.982       4.6766      0.01586
11.093        4.701      0.01602
11.204       4.6928      0.01614
11.317       4.6667      0.01615
11.431       4.6639      0.01623
11.546       4.7094      0.01649
11.662       4.6624      0.01651
11.779       4.6673      0.01661
11.897       4.6846      0.01676
12.017       4.7095      0.01698
12.138       4.6909      0.01703
 12.26       4.7113      0.01712
12.383       4.6719       0.0171
12.507       4.7232      0.01736
12.633       4.6767      0.01732
 12.76       4.6579      0.01743
12.888       4.6497      0.01761
13.018       4.7035      0.01776
13.148       4.6671      0.01777
13.281       4.6446      0.01787
13.414       4.6757      0.01803
13.549       4.6767      0.01815
13.685       4.6456      0.01817
13.823       4.6277      0.01822
13.962       4.6289      0.01831
14.102       4.6644      0.01851
14.244       4.6215      0.01856
14.387       4.6024      0.01862
14.531       4.6095      0.01883
14.677       4.6136      0.01891
14.825       4.6032        0.019
14.974       4.5704      0.01906
15.124       4.5282      0.01905
15.276       4.5013      0.01904
 15.43       4.5367      0.01923
15.585       4.5205      0.01931
15.742       4.5155       0.0194
  15.9       4.4708      0.01947
 16.06       4.4849      0.01955
16.221       4.4657      0.01958
16.384       4.4389      0.01961
16.549       4.4479      0.01967
16.715       4.3933      0.01962
16.883       4.3672      0.01963
17.053       4.3929       0.0198
17.224       4.3516      0.01974
17.397       4.3281      0.01976
17.572       4.2967      0.01971
17.749       4.2818      0.01961
17.927       4.2156      0.01958
18.107       4.2743      0.01973
18.289       4.2282      0.01965
18.473       4.2037      0.01962
18.659       4.1537      0.01946
18.846       4.1831      0.01957
19.036       4.1466      0.01947
19.227       4.1112       0.0193
 19.42       4.0862      0.01923
19.615       4.0849      0.01912
19.812       4.0847      0.01897
20.012       4.0203      0.01883
20.213       3.9981      0.01882
20.416       3.9788      0.01881
20.621       3.9532      0.01877
20.828       3.9434      0.01873
21.038       3.9256      0.01867
21.249       3.8744      0.01849
21.462        3.889      0.01847
21.678       3.8602      0.01835
21.896       3.8245       0.0182
22.116       3.7732      0.01806
22.338        3.789      0.01793
22.563       3.7724      0.01777
 22.79       3.7469      0.01762
23.019       3.7178      0.01748
 23.25       3.7044      0.01744
23.484       3.6466      0.01722
 23.72       3.6627      0.01714
23.958       3.6326        0.017
24.199       3.6474      0.01697
24.442       3.5867      0.01677
24.688       3.5918      0.01675
24.936       3.5624      0.01664
25.186       3.5236      0.01654
 25.44       3.5404      0.01648
25.695       3.5252      0.01641
25.954       3.4978      0.01628
26.214       3.4546      0.01618
26.478       3.4481       0.0161
26.744       3.4262        0.016
27.013       3.4213      0.01601
27.284       3.4006       0.0159
27.558       3.3606      0.01587
27.835       3.3849      0.01585
28.115       3.3311      0.01577
28.398        3.327      0.01574
28.683       3.3169      0.01571
28.971       3.3492      0.01572
29.263       3.2999      0.01566
29.557       3.3106      0.01562
29.854       3.3047      0.01567
30.154       3.2701      0.01556
30.457       3.2762      0.01565
30.763       3.2598      0.01556
31.072        3.249      0.01561
31.384       3.2279      0.01553
  31.7       3.2366      0.01556
32.018       3.2243      0.01553
 32.34        3.195      0.01549
32.665       3.2067      0.01547
32.994       3.1999      0.01542
33.325       3.1835      0.01536
 33.66       3.1902      0.01538
33.998         3.19      0.01535
 34.34       3.1999      0.01534
34.685       3.1814      0.01534
35.034       3.1747      0.01524
35.386       3.2009      0.01532
35.742       3.1627       0.0152
36.101       3.1912      0.01523
36.464       3.1911      0.01522
 36.83       3.1838      0.01521
  37.2       3.2239      0.01527
37.574       3.1955      0.01516
37.952       3.2275      0.01524
38.333        3.208      0.01513
38.718        3.201      0.01518
39.107       3.2237       0.0152
  39.5       3.2429       0.0152
39.898       3.2259      0.01516
40.298        3.229      0.01517
40.704       3.2477       0.0152
41.112       3.2331      0.01515
41.526        3.262      0.01522
41.943       3.2682      0.01521
42.365       3.2627      0.01519
 42.79       3.2886      0.01529
 43.22       3.2908      0.01522
43.655       3.2984      0.01523
44.094       3.3289      0.01528
44.537       3.3272      0.01532
44.984       3.3373      0.01529
45.436       3.3685      0.01536
45.893       3.3431      0.01535
46.354       3.3636      0.01537
 46.82       3.3801      0.01538
47.291       3.3802      0.01539
47.766       3.4056       0.0154
48.246       3.4118      0.01547
48.731       3.4376      0.01549
49.221       3.4286      0.01547
49.715       3.4298      0.01553
50.215       3.4719      0.01557
 50.72       3.4764      0.01557
 51.23       3.4693      0.01562
51.744       3.4838       0.0156
52.264       3.5027      0.01569
 52.79       3.5275      0.01573
 53.32       3.5286      0.01576
53.856       3.5034      0.01572
54.397        3.538       0.0158
54.944       3.5118      0.01576
55.496       3.5715      0.01587
56.054       3.5641      0.01582
56.617       3.5741      0.01589
57.186       3.6156      0.01597
57.761        3.586      0.01593
58.342       3.6219      0.01603
58.928       3.6119        0.016
 59.52       3.6099      0.01604
60.118        3.601      0.01605
60.723       3.6026      0.01608
61.333       3.6477      0.01614
61.949       3.6166      0.01609
62.572       3.6411      0.01616
63.201       3.6475      0.01617
63.836       3.6272      0.01618
64.478       3.6184       0.0162
65.126       3.6705       0.0163
 65.78       3.6814      0.01631
66.441       3.6588      0.01633
67.109       3.6498      0.01631
67.783        3.652      0.01634
68.465       3.6526      0.01635
69.153       3.6366       0.0163
69.848       3.6511      0.01639
 70.55       3.6508      0.01643
71.259       3.6525       0.0164
71.975       3.6523      0.01643
72.698       3.6458      0.01647
73.429       3.6498      0.01646
74.167       3.6088      0.01641
74.912       3.6323      0.01645
75.665       3.6408      0.01653
76.426       3.6125       0.0165
77.194       3.5733      0.01643
 77.97       3.5999      0.01651
78.753       3.5673      0.01644
79.545       3.5612      0.01645
80.344       3.5376      0.01645
81.152       3.5403      0.01648
81.967       3.5513      0.01645
82.791        3.546       0.0165
83.623       3.5051      0.01647
84.463       3.4897       0.0164
85.312       3.4937      0.01645
 86.17       3.4573      0.01642
87.036       3.4627      0.01643
 87.91       3.4421      0.01642
88.794       3.3809      0.01636
89.686       3.3737      0.01637
90.588       3.3834      0.01638
91.498       3.3598      0.01632
92.418       3.3417      0.01633
93.347       3.3425      0.01636
94.285       3.3174       0.0163
95.232       3.3194       0.0163
96.189       3.2779      0.01628
97.156       3.2711       0.0163
98.133       3.2439      0.01624
99.119       3.2048      0.01617
100.12       3.2078      0.01623
101.12       3.1925      0.01619
102.14       3.1895      0.01619
103.16        3.113      0.01608
 104.2       3.1256      0.01614
105.25       3.0797      0.01608
106.31       3.0751      0.01605
107.37       3.0469      0.01601
108.45       3.0391      0.01603
109.54       3.0137      0.01602
110.64       2.9987        0.016
111.76       2.9644      0.01599
112.88       2.9375      0.01595
114.01       2.9277      0.01598
115.16       2.9083      0.01589
116.32        2.886      0.01591
117.49       2.8404      0.01583
118.67       2.8312      0.01588
119.86       2.7873       0.0158
121.06       2.7955      0.01584
122.28       2.7793       0.0158
123.51       2.7502      0.01581
124.75       2.7215      0.01575
   126       2.7093      0.01575
127.27       2.6761      0.01573
128.55       2.6638       0.0157
129.84       2.6311      0.01567
131.15       2.6047      0.01561
132.46       2.5553      0.01554
 133.8       2.5838      0.01563
135.14       2.5288      0.01562
 136.5       2.5099      0.01562
137.87       2.4845      0.01554
139.26       2.5091      0.01558
140.66       2.4641      0.01555
142.07       2.4632      0.01558
 143.5       2.4034      0.01554
144.94       2.4355      0.01552
 146.4       2.3865      0.01548
147.87       2.3844      0.01554
149.36       2.3613      0.01553
150.86       2.3062      0.01544
152.37       2.3168      0.01546
 153.9       2.2922      0.01547
155.45       2.3003      0.01552
157.01       2.2915       0.0155
158.59        2.265      0.01549
160.18       2.2454      0.01548
161.79       2.1842      0.01537
163.42       2.1629      0.01543
165.06       2.1719      0.01547
166.72       2.1665       0.0155
 168.4       2.1645      0.01546
170.09       2.1588      0.01546
 171.8       2.1267      0.01548
173.52       2.1048      0.01548
175.27       2.0835      0.01549
177.03       2.0898      0.01552
178.81       2.0783       0.0155
180.61       2.0592      0.01549
182.42       2.0274      0.01549
184.26       2.0492      0.01555
186.11       2.0283      0.01555
187.98       2.0136      0.01557
189.87       2.0174      0.01556
191.78        2.018      0.01561
 193.7       2.0055      0.01562
195.65       1.9549      0.01561
197.62       1.9477      0.01567
 199.6       1.9364      0.01564
201.61        1.936      0.01564
203.63       1.9273       0.0157
205.68       1.9534      0.01574
207.75       1.9316      0.01578
209.84       1.9138       0.0158
211.94       1.9119       0.0158
214.08       1.8925      0.01579
216.23       1.8944      0.01581
 218.4       1.8658      0.01586
220.59       1.8944      0.01595
222.81        1.876      0.01598
225.05       1.8813      0.01598
227.31       1.8948      0.01601
 229.6       1.8805      0.01605
 231.9       1.8847      0.01609
234.24       1.8278      0.01609
236.59       1.8796      0.01616
238.97       1.8608      0.01619
241.37       1.8576      0.01623
 243.8        1.843      0.01628
246.24       1.8484       0.0163
248.72       1.8388      0.01632
251.22       1.8369      0.01637
253.74       1.8168      0.01644
 256.3       1.8577      0.01648
258.87       1.8413      0.01654
261.47       1.8559      0.01659
 264.1       1.8423      0.01655
266.75       1.8279      0.01664
269.44       1.8116      0.01668
272.14        1.836      0.01676
274.88       1.8156      0.01678
277.64       1.8274      0.01681
280.43       1.8415      0.01683
283.25       1.8255      0.01688
 286.1       1.8554        0.017
288.97       1.8143        0.017
291.88       1.8127      0.01707
294.81       1.8343      0.01713
297.77       1.8208      0.01715
300.76       1.8319       0.0172
303.79       1.8423      0.01727
306.84       1.8324      0.01728
309.92         1.82      0.01736
313.04       1.8347      0.01742
316.19       1.8386      0.01751
319.36        1.845      0.01754
322.57       1.8109       0.0175
325.82       1.8314      0.01758
329.09       1.8328      0.01764
 332.4       1.8675      0.01771
335.74       1.8251      0.01768
339.11        1.866      0.01783
342.52       1.8823      0.01786
345.96       1.8581       0.0179
349.44       1.8606      0.01794
352.95        1.863      0.01793
 356.5       1.8302      0.01794
360.08       1.8606      0.01802
 363.7       1.8807      0.01801
367.36       1.8566      0.01806
371.05       1.8596      0.01808
374.78       1.8827      0.01818
378.54       1.8698      0.01818
382.35       1.8478      0.01814
386.19       1.8814      0.01825
390.07       1.9067      0.01822
393.99       1.9221      0.01832
397.95       1.8774      0.01826
401.95       1.8899      0.01823
405.99       1.8884       0.0183
410.07       1.9113      0.01833
414.19       1.8874      0.01831
418.36       1.9233      0.01836
422.56       1.9103      0.01838
426.81       1.9343      0.01837
 431.1        1.926      0.01836
435.43        1.923      0.01836
 439.8       1.9329       0.0184
444.22       1.9419      0.01842
448.69       1.9278      0.01844
 453.2       1.9365       0.0184
457.75        1.948      0.01849
462.35       1.9362      0.01852
   467       1.9418      0.01862
 471.7       1.9677      0.01874
476.44       1.9284      0.01874
481.22       1.9627       0.0188
486.06       1.9702      0.01898
490.94       1.9697      0.01909
495.88        1.964       0.0192
500.86       2.0035      0.01944
 505.9       1.9648      0.01963
510.98       2.0201       0.0199
516.12       1.9962      0.02017
 521.3       2.0185      0.02043
526.54        2.008      0.02071
531.84       2.0188      0.02107
537.18       2.0215      0.02154
542.58       2.0314      0.02203
548.03       2.0145      0.02253
553.54       2.0092       0.0232
 559.1       2.0325      0.02382
564.72       2.0294      0.02452
 570.4       2.0261      0.02525
576.13       2.0219       0.0263
581.92       2.0293       0.0274
587.77        2.025      0.02842
593.68       2.0534      0.02967
599.64       2.0384        0.031
