F.J.Vaughn et al (1965) (to 2.466 MeV); S.R.Salisbury et al (1965) (2.5 MeV to 19 MeV)
18O (n,tot)
MeV      barns      barns (error)    
0.145    3.26       0
0.165    3.04       0
0.184    3.26       0
0.204    3.06       0
0.224    3.05       0
0.244    3.16       0
0.264    2.725      0
0.284    3.035      0
0.304    2.343      0
0.324    2.847      0
0.344    2.757      0
0.364    2.937      0
0.384    2.833      0
0.403    2.859      0
0.423    2.726      0
0.443    2.915      0
0.463    2.882      0
0.483    2.861      0
0.503    2.911      0
0.523    3.101      0
0.543    2.939      0
0.563    3.131      0
0.583    3.64       0
0.602    4.177      0
0.622    5.556      0
0.632    6.311      0
0.642    8.035      0
0.653    9.262      0
0.662    10.24      0
0.672    9.223      0
0.682    8.174      0
0.692    6.675      0
0.702    5.245      0
0.721    3.541      0
0.741    2.954      0
0.761    2.605      0
0.781    2.234      0
0.801    2.059      0
0.821    1.788      0
0.841    1.735      0
0.861    1.782      0
0.881    1.836      0
0.901    1.821      0
0.911    1.737      0
0.921    1.749      0
0.931    1.838      0
0.941    1.987      0
0.951    1.909      0
0.961    1.603      0
0.971    2.13       0
0.981    1.719      0
0.991    2.128      0
1.001    1.96       0
1.006    1.899      0
1.016    1.958      0
1.026    2.315      0
1.036    2.094      0
1.046    2.209      0
1.056    2.782      0
1.066    2.718      0
1.076    2.303      0
1.086    2.683      0
1.096    2.343      0
1.106    3.036      0
1.116    3.183      0
1.126    3.309      0
1.136    3.416      0
1.14     3.671      0
1.145    3.832      0
1.15     3.7        0
1.154    4.047      0
1.159    4.245      0
1.164    4.371      0
1.169    4.82       0
1.174    4.903      0
1.179    5.045      0
1.184    5.391      0
1.189    5.441      0
1.194    5.112      0
1.199    5.352      0
1.203    5.122      0
1.209    4.962      0
1.214    4.713      0
1.218    4.275      0
1.232    4.32       0
1.24     4.412      0
1.244    4.2        0
1.248    4.16       0
1.252    4.72       0
1.254    5.67       0
1.255    6.79       0
1.256    7.29       0
1.257    6.87       0
1.258    6.35       0
1.26     4.94       0
1.264    4.455      0
1.272    4.17       0
1.28     4.19       0
1.286    4.324      0
1.296    4.355      0
1.303    4.697      0
1.313    4.797      0
1.323    4.616      0
1.333    4.791      0
1.343    5.261      0
1.353    5.414      0
1.363    5.033      0
1.373    5.124      0
1.383    5.339      0
1.393    5.877      0
1.403    6.118      0
1.413    5.921      0
1.423    6.447      0
1.433    6.696      0
1.443    6.466      0
1.453    7.235      0
1.463    6.882      0
1.473    7.468      0
1.483    7.362      0
1.491    8.077      0
1.501    7.74       0
1.511    8.14       0
1.521    7.682      0
1.531    8.368      0
1.541    8.095      0
1.551    8.631      0
1.561    7.947      0
1.571    8.5        0
1.581    8.252      0
1.591    7.917      0
1.601    8.547      0
1.611    8.05       0
1.621    7.907      0
1.631    8.198      0
1.641    7.325      0
1.651    7.349      0
1.661    7.184      0
1.671    7.182      0
1.681    6.835      0
1.691    6.617      0
1.698    6.035      0
1.708    5.801      0
1.718    5.956      0
1.728    5.38       0
1.738    4.97       0
1.748    4.368      0
1.758    4.384      0
1.768    4.53       0
1.778    4.28       0
1.789    4.32       0
1.797    4.27       0
1.806    4.05       0
1.817    3.87       0
1.826    3.66       0
1.832    3.8        0
1.836    4.8        0
1.839    5.23       0
1.841    5.04       0
1.847    4.07       0
1.851    3.54       0
1.857    3.4        0
1.866    3.21       0
1.868    3.15       0
1.878    3.15       0
1.888    2.839      0
1.898    2.943      0
1.906    3.369      0
1.916    2.698      0
1.926    2.751      0
1.936    2.725      0
1.946    1.924      0
1.956    2.886      0
1.966    2.537      0
1.976    2.487      0
1.986    2.272      0
1.996    1.986      0
2.006    1.99       0
2.016    2.021      0
2.026    1.986      0
2.036    1.706      0
2.046    1.889      0
2.056    1.911      0
2.066    1.842      0
2.076    1.702      0
2.086    1.71       0
2.093    1.657      0
2.103    1.538      0
2.113    1.563      0
2.123    1.721      0
2.133    1.555      0
2.143    1.821      0
2.153    2.023      0
2.165    1.982      0
2.175    2.228      0
2.185    2.314      0
2.195    2.417      0
2.205    2.574      0
2.215    3.539      0
2.225    3.36       0
2.235    3.83       0
2.245    3.328      0
2.255    3.227      0
2.265    3.651      0
2.275    3.552      0
2.285    3.34       0
2.295    3.768      0
2.305    3.485      0
2.315    3.593      0
2.325    3.806      0
2.335    3.608      0
2.345    3.411      0
2.355    2.901      0
2.365    4.14       0
2.376    2.993      0
2.386    2.756      0
2.391    3.642      0
2.396    3.093      0
2.401    3.241      0
2.406    4.1        0
2.411    3.774      0
2.416    3.14       0
2.421    3.06       0
2.426    3.03       0
2.431    4.16       0
2.436    4.14       0
2.441    5.86       0
2.446    6.11       0
2.451    5.55       0
2.456    4.59       0
2.46     4.02       0
2.466    3.34       0
2.45     4.41       0
2.475    4.4        0
2.5      4.31       0
2.51     3.61       0
2.525    3.59       0
2.535    3.54       0
2.55     3.53       0
2.56     3.75       0
2.575    3.88       0
2.585    3.6        0
2.6      3.76       0
2.61     2.96       0
2.625    3.12       0
2.65     2.84       0
2.675    2.87       0
2.7      2.91       0
2.725    2.28       0
2.75     2.71       0
2.775    2.45       0
2.8      2.31       0
2.825    2.37       0
2.85     2.07       0
2.875    2.09       0
2.913    2.62       0
2.963    2.85       0
3.013    2.95       0
3.063    2.72       0
3.113    2.2        0
3.163    2.1        0
3.213    2.         0
3.263    1.95       0
3.313    1.86       0
3.363    2.36       0
3.413    1.77       0
3.463    2.25       0
3.513    2.07       0
3.563    2.2        0
3.613    2.2        0
3.663    2.06       0
3.713    2.08       0
3.763    2.07       0
3.813    2.14       0
3.863    1.88       0
3.913    1.5        0
3.963    1.49       0
4.013    1.33       0
4.063    1.72       0
4.113    1.59       0
4.163    1.6        0
4.213    1.6        0
4.263    1.63       0
4.313    1.69       0
4.363    1.66       0
4.413    1.74       0
4.463    1.74       0
4.513    1.8        0
4.563    1.76       0
4.613    1.66       0
4.663    1.64       0
4.713    1.5        0
4.763    1.55       0
4.813    1.57       0
4.863    1.79       0
4.913    1.84       0
4.963    1.83       0
5.013    1.71       0
5.063    1.75       0
5.113    1.79       0
5.163    1.59       0
5.213    1.56       0
5.263    1.61       0
5.313    1.55       0
5.363    1.46       0
5.415    1.44       0
5.463    1.42       0
5.513    1.51       0
5.563    1.29       0
5.613    1.12       0
5.663    1.24       0
5.713    1.28       0
5.763    1.05       0
5.813    1.14       0
5.863    1.37       0
5.913    1.31       0
5.963    1.43       0
6.013    1.52       0
6.063    1.55       0
6.113    1.71       0
6.163    1.91       0
6.213    1.77       0
6.263    1.91       0
6.313    1.53       0
6.363    1.36       0
6.413    1.23       0
6.425    1.366      0
6.525    1.467      0
6.625    1.772      0
6.688    1.572      0
6.738    1.733      0
6.888    1.43       0
6.975    1.311      0
7.075    1.502      0
7.175    1.353      0
7.275    1.462      0
7.375    1.294      0
7.475    1.164      0
7.538    1.13       0
7.588    1.094      0
7.638    1.211      0
7.688    1.289      0
7.738    1.393      0
7.788    1.032      0
7.838    1.546      0
7.888    1.334      0
7.938    1.654      0
7.988    1.479      0
8.038    1.638      0
8.088    1.217      0
8.138    1.333      0
8.188    1.439      0
8.238    1.067      0
8.288    1.065      0
8.338    1.52       0
8.388    1.743      0
8.438    1.443      0
8.488    1.846      0
10.7     1.66       0
11.4     1.37       0
12.4     1.39       0
13.4     1.36       0
14.46    1.18       0
15.45    1.3        0
16.4     1.55       0
17.44    1.57       0
18.44    1.57       0
19.      1.49       0
