Literature data from R.W.Finlay et al (1993) (>5.29 MeV) and Perey et al (1972) (<5.29 MeV)
NatO(n,tot) 
MeV          Barns       Error (Barns)
1.00029      7.744       0.18        
1.00146      8.101       0.201       
1.00263      7.799       0.187       
1.00381      7.983       0.192       
1.00498      7.654       0.173       
1.00616      7.961       0.187       
1.00734      7.964       0.186       
1.00853      7.582       0.163       
1.00971      7.926       0.181       
1.0109       7.52        0.158       
1.01209      7.587       0.16        
1.01328      7.615       0.161       
1.01447      7.332       0.151       
1.01567      7.399       0.155       
1.01687      7.312       0.152       
1.01807      7.204       0.144       
1.01927      7.118       0.137       
1.02048      6.972       0.129       
1.02168      6.938       0.124       
1.02289      6.965       0.127       
1.0241       7.006       0.129       
1.02531      6.654       0.115       
1.02653      6.672       0.114       
1.02775      6.665       0.111       
1.02897      6.57        0.106       
1.03019      6.405       0.102       
1.03141      6.363       0.098       
1.03264      6.421       0.1         
1.03387      6.227       0.094       
1.0351       6.269       0.095       
1.03633      6.287       0.095       
1.03756      6.091       0.091       
1.0388       5.84        0.088       
1.04004      5.855       0.096       
1.04128      5.776       0.101       
1.04253      5.698       0.096       
1.04377      5.428       0.08        
1.04502      5.589       0.077       
1.04627      5.5         0.072       
1.04752      5.277       0.068       
1.04878      5.254       0.066       
1.05004      5.267       0.065       
1.05129      5.126       0.063       
1.05256      5.024       0.061       
1.05382      5.038       0.061       
1.05509      4.989       0.059       
1.05636      4.888       0.057       
1.05763      4.854       0.056       
1.0589       4.759       0.056       
1.06017      4.875       0.058       
1.06145      4.811       0.056       
1.06273      4.609       0.051       
1.06401      4.649       0.051       
1.0653       4.505       0.05        
1.06659      4.461       0.048       
1.06788      4.536       0.048       
1.06917      4.371       0.045       
1.07046      4.327       0.045       
1.07176      4.346       0.045       
1.07306      4.326       0.044       
1.07436      4.247       0.044       
1.07566      4.251       0.044       
1.07697      4.206       0.042       
1.07828      4.098       0.041       
1.07959      4.107       0.041       
1.0809       4.097       0.041       
1.08221      4.049       0.041       
1.08353      3.976       0.039       
1.08485      3.889       0.039       
1.08617      3.875       0.039       
1.0875       3.878       0.039       
1.08883      3.816       0.038       
1.09016      3.823       0.038       
1.09149      3.773       0.038       
1.09282      3.735       0.038       
1.09416      3.713       0.038       
1.0955       3.66        0.037       
1.09684      3.611       0.037       
1.09819      3.621       0.037       
1.09954      3.551       0.035       
1.10089      3.507       0.035       
1.10224      3.594       0.035       
1.10359      3.51        0.035       
1.10495      3.462       0.035       
1.10631      3.522       0.035       
1.10767      3.436       0.034       
1.10904      3.435       0.034       
1.1104       3.406       0.034       
1.11177      3.452       0.035       
1.11314      3.321       0.034       
1.11452      3.29        0.034       
1.1159       3.337       0.034       
1.11728      3.281       0.034       
1.11866      3.283       0.034       
1.12004      3.279       0.032       
1.12143      3.236       0.032       
1.12282      3.2         0.032       
1.12421      3.246       0.032       
1.12561      3.221       0.032       
1.12701      3.154       0.03        
1.12841      3.101       0.029       
1.12981      3.108       0.029       
1.13122      3.105       0.029       
1.13263      3.092       0.029       
1.13404      3.067       0.029       
1.13545      3.047       0.029       
1.13687      3.021       0.028       
1.13829      3.055       0.028       
1.13971      3.08        0.028       
1.14113      3.005       0.028       
1.14256      3.013       0.028       
1.14399      3.028       0.028       
1.14542      2.929       0.028       
1.14686      2.979       0.028       
1.14829      2.993       0.028       
1.14973      2.957       0.028       
1.15118      2.963       0.025       
1.15262      2.935       0.025       
1.15407      2.914       0.025       
1.15552      2.897       0.024       
1.15698      2.92        0.024       
1.15843      2.869       0.023       
1.15989      2.875       0.023       
1.16136      2.851       0.024       
1.16282      2.864       0.026       
1.16429      2.867       0.028       
1.16576      2.825       0.028       
1.16723      2.811       0.028       
1.16871      2.82        0.028       
1.17019      2.826       0.028       
1.17167      2.811       0.026       
1.17315      2.777       0.026       
1.17464      2.754       0.026       
1.17613      2.757       0.024       
1.17763      2.764       0.024       
1.17912      2.786       0.024       
1.18062      2.762       0.024       
1.18212      2.701       0.024       
1.18363      2.737       0.024       
1.18513      2.712       0.024       
1.18664      2.737       0.024       
1.18816      2.707       0.024       
1.18967      2.743       0.024       
1.19119      2.684       0.024       
1.19272      2.685       0.024       
1.19424      2.715       0.024       
1.19577      2.637       0.025       
1.1973       2.687       0.026       
1.19883      2.699       0.028       
1.20037      2.651       0.03        
1.20191      2.66        0.033       
1.20345      2.679       0.037       
1.205        2.63        0.035       
1.20655      2.648       0.034       
1.2081       2.652       0.033       
1.20965      2.694       0.033       
1.21121      2.721       0.031       
1.21277      2.624       0.03        
1.21433      2.626       0.03        
1.2159       2.636       0.03        
1.21747      2.667       0.03        
1.21904      2.696       0.03        
1.22062      2.674       0.028       
1.2222       2.665       0.028       
1.22378      2.672       0.028       
1.22536      2.676       0.026       
1.22695      2.687       0.026       
1.22854      2.656       0.026       
1.23014      2.698       0.026       
1.23173      2.657       0.026       
1.23333      2.636       0.025       
1.23494      2.685       0.024       
1.23655      2.665       0.024       
1.23815      2.634       0.023       
1.23977      2.689       0.023       
1.24138      2.72        0.023       
1.243        2.71        0.023       
1.24463      2.738       0.022       
1.24625      2.766       0.022       
1.24788      2.759       0.021       
1.24951      2.792       0.021       
1.25115      2.797       0.022       
1.25279      2.779       0.022       
1.25443      2.808       0.024       
1.25607      2.849       0.024       
1.25772      2.859       0.025       
1.25937      2.854       0.028       
1.26103      2.922       0.031       
1.26268      2.931       0.034       
1.26435      2.987       0.034       
1.26601      3.031       0.032       
1.26768      3.055       0.03        
1.26935      3.113       0.03        
1.27102      3.097       0.03        
1.2727       3.306       0.032       
1.27438      3.313       0.032       
1.27607      3.381       0.033       
1.27775      3.455       0.035       
1.27945      3.563       0.035       
1.28114      3.609       0.035       
1.28284      3.833       0.037       
1.28454      3.891       0.037       
1.28624      3.967       0.039       
1.28795      4.196       0.042       
1.28966      4.349       0.043       
1.29138      4.457       0.045       
1.2931       4.81        0.051       
1.29482      4.821       0.051       
1.29654      5.261       0.057       
1.29827      5.43        0.06        
1.3          5.589       0.063       
1.30174      5.774       0.067       
1.30348      6.101       0.075       
1.30522      6.367       0.083       
1.30697      6.469       0.084       
1.30871      6.508       0.086       
1.31047      6.663       0.09        
1.31222      6.744       0.092       
1.31398      6.673       0.09        
1.31575      6.451       0.084       
1.31752      6.362       0.081       
1.31929      6.198       0.076       
1.32106      5.915       0.07        
1.32284      5.793       0.067       
1.32462      5.528       0.061       
1.3264       5.372       0.058       
1.32819      5.071       0.052       
1.32999      4.946       0.051       
1.33178      4.787       0.049       
1.33358      4.522       0.045       
1.33538      4.373       0.042       
1.33719      4.197       0.04        
1.339        4.069       0.039       
1.34082      4.008       0.039       
1.34263      3.864       0.037       
1.34446      3.685       0.035       
1.34628      3.611       0.035       
1.34811      3.5         0.033       
1.34994      3.466       0.033       
1.35178      3.326       0.032       
1.35362      3.3         0.032       
1.35546      3.228       0.03        
1.35731      3.161       0.03        
1.35916      3.055       0.029       
1.36102      3.059       0.029       
1.36288      2.997       0.029       
1.36474      2.925       0.027       
1.36661      2.934       0.027       
1.36848      2.845       0.027       
1.37035      2.856       0.027       
1.37223      2.792       0.025       
1.37411      2.784       0.025       
1.376        2.721       0.025       
1.37789      2.726       0.026       
1.37978      2.692       0.026       
1.38168      2.604       0.026       
1.38358      2.608       0.024       
1.38549      2.589       0.024       
1.3874       2.589       0.024       
1.38931      2.565       0.024       
1.39123      2.52        0.024       
1.39315      2.496       0.024       
1.39508      2.484       0.024       
1.39701      2.476       0.024       
1.39894      2.515       0.024       
1.40088      2.443       0.025       
1.40282      2.438       0.026       
1.40476      2.437       0.028       
1.40671      2.457       0.032       
1.40867      2.411       0.034       
1.41062      2.354       0.032       
1.41259      2.374       0.03        
1.41455      2.317       0.028       
1.41652      2.407       0.026       
1.4185       2.345       0.026       
1.42047      2.33        0.025       
1.42246      2.285       0.025       
1.42444      2.281       0.025       
1.42643      2.268       0.025       
1.42843      2.263       0.025       
1.43043      2.252       0.025       
1.43243      2.262       0.025       
1.43444      2.25        0.025       
1.43645      2.196       0.023       
1.43847      2.172       0.023       
1.44049      2.23        0.023       
1.44251      2.241       0.023       
1.44454      2.179       0.023       
1.44657      2.182       0.023       
1.44861      2.177       0.023       
1.45065      2.184       0.023       
1.4527       2.143       0.023       
1.45475      2.214       0.023       
1.45681      2.2         0.023       
1.45886      2.164       0.023       
1.46093      2.19        0.023       
1.463        2.146       0.023       
1.46507      2.108       0.023       
1.46714      2.161       0.023       
1.46923      2.15        0.023       
1.47131      2.136       0.023       
1.4734       2.187       0.025       
1.4755       2.158       0.027       
1.47759      2.12        0.029       
1.4797       2.111       0.028       
1.48181      2.133       0.025       
1.48392      2.137       0.023       
1.48604      2.076       0.023       
1.48816      2.071       0.021       
1.49028      2.078       0.021       
1.49241      2.094       0.021       
1.49455      2.094       0.021       
1.49669      2.074       0.021       
1.49883      2.039       0.021       
1.50098      2.08        0.021       
1.50313      2.039       0.021       
1.50529      1.986       0.021       
1.50746      2.059       0.021       
1.50962      2.076       0.021       
1.5118       2.057       0.021       
1.51397      2.044       0.021       
1.51615      2.034       0.021       
1.51834      2.04        0.021       
1.52053      2.016       0.023       
1.52273      2.046       0.023       
1.52493      1.978       0.026       
1.52713      2.038       0.027       
1.52934      1.985       0.026       
1.53156      2.014       0.023       
1.53378      1.994       0.023       
1.536        2.032       0.022       
1.53823      2.004       0.022       
1.54047      1.993       0.021       
1.54271      1.991       0.021       
1.54495      1.977       0.021       
1.5472       1.976       0.021       
1.54945      1.97        0.021       
1.55171      1.987       0.021       
1.55398      1.925       0.02        
1.55624      1.961       0.02        
1.55852      1.953       0.021       
1.5608       1.949       0.021       
1.56308      1.989       0.021       
1.56537      1.926       0.021       
1.56766      1.916       0.021       
1.56996      1.951       0.021       
1.57227      1.927       0.021       
1.57458      1.947       0.022       
1.57689      1.942       0.023       
1.57921      1.891       0.023       
1.58153      1.935       0.023       
1.58386      1.883       0.022       
1.5862       1.904       0.023       
1.58854      1.948       0.026       
1.59088      1.934       0.029       
1.59323      1.942       0.032       
1.59559      1.828       0.035       
1.59795      1.897       0.035       
1.60031      1.924       0.031       
1.60269      1.906       0.03        
1.60506      1.885       0.029       
1.60744      1.849       0.029       
1.60983      1.846       0.028       
1.61222      1.862       0.029       
1.61462      1.912       0.029       
1.61702      1.902       0.029       
1.61943      1.849       0.029       
1.62185      1.928       0.031       
1.62427      1.87        0.032       
1.62669      1.929       0.032       
1.62912      1.933       0.036       
1.63156      1.944       0.038       
1.634        2.003       0.039       
1.63644      2.091       0.041       
1.63889      2.155       0.037       
1.64135      2.244       0.035       
1.64382      2.54        0.038       
1.64628      2.803       0.044       
1.64876      3.522       0.062       
1.65124      3.714       0.07        
1.65372      3.143       0.057       
1.65621      2.643       0.048       
1.65871      2.267       0.041       
1.66121      2.049       0.036       
1.66372      1.947       0.032       
1.66623      1.869       0.031       
1.66875      1.901       0.029       
1.67128      1.926       0.027       
1.67381      1.871       0.026       
1.67635      1.818       0.026       
1.67889      1.813       0.024       
1.68144      1.783       0.024       
1.68399      1.827       0.023       
1.68655      1.893       0.023       
1.68912      1.863       0.023       
1.69169      1.814       0.022       
1.69427      1.805       0.022       
1.69685      1.799       0.022       
1.69944      1.769       0.022       
1.70203      1.769       0.022       
1.70463      1.765       0.022       
1.70724      1.751       0.02        
1.70985      1.718       0.021       
1.71247      1.732       0.021       
1.7151       1.729       0.02        
1.71773      1.746       0.02        
1.72037      1.701       0.02        
1.72301      1.697       0.02        
1.72566      1.705       0.02        
1.72831      1.687       0.02        
1.73098      1.713       0.02        
1.73364      1.687       0.02        
1.73632      1.732       0.02        
1.739        1.709       0.02        
1.74168      1.674       0.02        
1.74438      1.691       0.02        
1.74708      1.7         0.02        
1.74978      1.689       0.02        
1.75249      1.686       0.02        
1.75521      1.668       0.02        
1.75793      1.666       0.02        
1.76066      1.66        0.02        
1.7634       1.665       0.02        
1.76614      1.662       0.02        
1.76889      1.681       0.02        
1.77165      1.638       0.02        
1.77441      1.654       0.02        
1.77718      1.634       0.02        
1.77996      1.61        0.02        
1.78274      1.614       0.02        
1.78553      1.626       0.02        
1.78832      1.611       0.02        
1.79112      1.609       0.02        
1.79393      1.616       0.02        
1.79675      1.624       0.02        
1.79957      1.607       0.02        
1.8024       1.561       0.021       
1.80523      1.578       0.021       
1.80807      1.581       0.02        
1.81092      1.622       0.02        
1.81378      1.607       0.02        
1.81664      1.578       0.021       
1.81951      1.619       0.021       
1.82238      1.786       0.022       
1.82526      1.935       0.025       
1.82815      2.356       0.03        
1.83105      2.996       0.039       
1.83395      3.588       0.049       
1.83686      3.474       0.053       
1.83978      3.04        0.054       
1.8427       2.595       0.053       
1.84563      2.419       0.057       
1.84857      2.143       0.057       
1.85151      2.101       0.057       
1.85447      2.062       0.055       
1.85742      2.007       0.052       
1.86039      2.008       0.047       
1.86336      1.981       0.045       
1.86634      2.004       0.041       
1.86933      2.006       0.039       
1.87233      2.07        0.037       
1.87533      2.071       0.036       
1.87834      2.128       0.035       
1.88135      2.22        0.033       
1.88438      2.292       0.033       
1.88741      2.439       0.033       
1.89044      2.561       0.032       
1.89349      2.693       0.032       
1.89654      2.869       0.032       
1.8996       2.995       0.033       
1.90267      3.102       0.033       
1.90574      3.076       0.034       
1.90883      3.083       0.035       
1.91192      2.965       0.037       
1.91501      2.775       0.039       
1.91812      2.595       0.039       
1.92123      2.45        0.04        
1.92435      2.35        0.039       
1.92748      2.226       0.037       
1.93062      2.066       0.034       
1.93376      2.006       0.032       
1.93691      1.964       0.032       
1.94007      1.857       0.031       
1.94323      1.872       0.03        
1.94641      1.84        0.03        
1.94959      1.833       0.029       
1.95278      1.82        0.029       
1.95598      1.779       0.031       
1.95918      1.69        0.031       
1.9624       1.701       0.031       
1.96562      1.679       0.033       
1.96885      1.681       0.035       
1.97208      1.672       0.035       
1.97533      1.664       0.033       
1.97858      1.693       0.031       
1.98184      1.644       0.029       
1.98511      1.64        0.028       
1.98839      1.617       0.026       
1.99167      1.576       0.026       
1.99497      1.634       0.026       
1.99827      1.591       0.024       
2.00158      1.621       0.024       
2.0049       1.576       0.024       
2.00822      1.489       0.024       
2.01156      1.538       0.024       
2.0149       1.515       0.023       
2.01825      1.524       0.022       
2.02161      1.571       0.022       
2.02498      1.54        0.022       
2.02836      1.513       0.022       
2.03174      1.538       0.022       
2.03514      1.502       0.021       
2.03854      1.488       0.021       
2.04195      1.497       0.021       
2.04537      1.481       0.022       
2.0488       1.472       0.022       
2.05223      1.491       0.022       
2.05568      1.438       0.022       
2.05913      1.487       0.022       
2.06259      1.442       0.022       
2.06607      1.482       0.021       
2.06955      1.468       0.021       
2.07303      1.471       0.021       
2.07653      1.439       0.022       
2.08004      1.462       0.024       
2.08355      1.407       0.026       
2.08708      1.434       0.029       
2.09061      1.434       0.03        
2.09416      1.436       0.03        
2.09771      1.408       0.03        
2.10127      1.403       0.03        
2.10484      1.373       0.03        
2.10842      1.437       0.031       
2.112        1.388       0.032       
2.1156       1.422       0.032       
2.11921      1.442       0.03        
2.12282      1.335       0.029       
2.12645      1.352       0.026       
2.13008      1.315       0.025       
2.13372      1.323       0.024       
2.13738      1.36        0.024       
2.14104      1.327       0.024       
2.14471      1.358       0.024       
2.14839      1.299       0.024       
2.15208      1.355       0.024       
2.15578      1.301       0.024       
2.15949      1.289       0.024       
2.16321      1.294       0.024       
2.16694      1.271       0.025       
2.17068      1.317       0.025       
2.17443      1.281       0.025       
2.17818      1.248       0.025       
2.18195      1.259       0.024       
2.18573      1.232       0.023       
2.18952      1.268       0.023       
2.19331      1.236       0.023       
2.19712      1.249       0.023       
2.20094      1.202       0.023       
2.20476      1.195       0.023       
2.2086       1.16        0.023       
2.21245      1.162       0.023       
2.21631      1.11        0.024       
2.22017      1.166       0.025       
2.22405      1.095       0.027       
2.22794      1.109       0.025       
2.23184      1.103       0.025       
2.23574      1.063       0.023       
2.23966      1.039       0.022       
2.24359      1.014       0.022       
2.24753      0.988       0.022       
2.25148      1.013       0.022       
2.25544      0.96        0.022       
2.25941      0.918       0.022       
2.26339      0.916       0.022       
2.26738      0.881       0.022       
2.27138      0.841       0.023       
2.27539      0.812       0.024       
2.27942      0.799       0.025       
2.28345      0.77        0.026       
2.2875       0.678       0.026       
2.29155      0.674       0.025       
2.29562      0.581       0.025       
2.29969      0.559       0.024       
2.30378      0.455       0.024       
2.30788      0.453       0.023       
2.31199      0.365       0.022       
2.31611      0.354       0.022       
2.32024      0.304       0.021       
2.32439      0.215       0.021       
2.32854      0.191       0.02        
2.3327       0.169       0.02        
2.33688      0.176       0.02        
2.34107      0.132       0.02        
2.34527      0.099       0.021       
2.34948      0.137       0.021       
2.3537       0.128       0.021       
2.35793      0.121       0.021       
2.36218      0.163       0.021       
2.36643      0.16        0.022       
2.3707       0.214       0.023       
2.37498      0.217       0.023       
2.37927      0.264       0.022       
2.38357      0.345       0.022       
2.38789      0.37        0.022       
2.39221      0.404       0.021       
2.39655      0.449       0.021       
2.4009       0.534       0.021       
2.40526      0.525       0.021       
2.40963      0.58        0.021       
2.41402      0.634       0.022       
2.41841      0.668       0.021       
2.42282      0.704       0.022       
2.42724      0.721       0.022       
2.43168      0.752       0.022       
2.43612      0.795       0.022       
2.44058      0.809       0.022       
2.44505      0.847       0.023       
2.44953      0.855       0.024       
2.45403      0.902       0.026       
2.45853      0.906       0.028       
2.46305      0.946       0.028       
2.46758      0.934       0.028       
2.47213      0.96        0.027       
2.47669      0.99        0.028       
2.48126      1.013       0.03        
2.48584      1.002       0.032       
2.49043      0.984       0.034       
2.49504      0.978       0.036       
2.49966      0.97        0.035       
2.50429      0.958       0.032       
2.50894      0.996       0.032       
2.5136       1.006       0.03        
2.51827      1.067       0.03        
2.52296      1.01        0.03        
2.52766      1.03        0.03        
2.53237      1.015       0.03        
2.53709      1.029       0.03        
2.54183      1.078       0.03        
2.54658      1.066       0.03        
2.55135      1.147       0.03        
2.55613      1.037       0.03        
2.56092      1.044       0.03        
2.56572      1.123       0.03        
2.57054      1.045       0.03        
2.57537      1.056       0.03        
2.58022      1.041       0.03        
2.58508      1.1         0.03        
2.58995      1.077       0.03        
2.59484      1.072       0.03        
2.59974      1.091       0.03        
2.60466      1.138       0.03        
2.60958      1.056       0.03        
2.61453      1.107       0.029       
2.61948      1.071       0.029       
2.62446      1.078       0.029       
2.62944      1.037       0.028       
2.63444      1.093       0.029       
2.63945      1.074       0.029       
2.64448      1.108       0.029       
2.64953      1.083       0.03        
2.65458      1.136       0.031       
2.65965      1.12        0.031       
2.66474      1.053       0.03        
2.66984      1.064       0.03        
2.67496      1.083       0.027       
2.68009      1.129       0.027       
2.68523      1.045       0.027       
2.69039      1.072       0.03        
2.69557      1.109       0.03        
2.70076      1.08        0.03        
2.70596      1.12        0.03        
2.71118      1.11        0.03        
2.71642      1.057       0.03        
2.72167      1.138       0.029       
2.72693      1.038       0.027       
2.73221      1.066       0.027       
2.73751      1.098       0.029       
2.74282      1.072       0.029       
2.74815      1.124       0.029       
2.75349      1.007       0.03        
2.75885      1.081       0.029       
2.76422      1.069       0.03        
2.76961      1.091       0.03        
2.77502      1.134       0.031       
2.78044      1.134       0.031       
2.78588      1.108       0.031       
2.79133      1.104       0.031       
2.7968       1.032       0.03        
2.80228      1.066       0.031       
2.80779      1.074       0.031       
2.8133       1.06        0.031       
2.81884      1.075       0.031       
2.82439      1.075       0.032       
2.82996      1.054       0.033       
2.83554      1.114       0.035       
2.84114      1.063       0.035       
2.84676      1.124       0.035       
2.85239      1.066       0.037       
2.85804      1.131       0.037       
2.86371      1.057       0.036       
2.86939      1.092       0.035       
2.87509      1.138       0.033       
2.88081      1.124       0.031       
2.88654      1.096       0.03        
2.8923       1.146       0.03        
2.89807      1.118       0.03        
2.90385      1.027       0.03        
2.90966      1.043       0.03        
2.91548      1.131       0.029       
2.92132      1.128       0.03        
2.92717      1.12        0.031       
2.93305      1.13        0.031       
2.93894      1.144       0.031       
2.94485      1.093       0.03        
2.95078      1.165       0.029       
2.95672      1.135       0.027       
2.96269      1.113       0.027       
2.96867      1.111       0.027       
2.97467      1.181       0.027       
2.98069      1.14        0.029       
2.98672      1.157       0.029       
2.99278      1.187       0.031       
2.99885      1.25        0.032       
3.00494      1.249       0.034       
3.01105      1.259       0.035       
3.01718      1.22        0.035       
3.02333      1.269       0.034       
3.0295       1.245       0.034       
3.03568      1.252       0.033       
3.04189      1.321       0.034       
3.04811      1.343       0.034       
3.05435      1.351       0.034       
3.06062      1.388       0.034       
3.0669       1.379       0.034       
3.0732       1.35        0.032       
3.07952      1.392       0.032       
3.08586      1.484       0.033       
3.09222      1.464       0.034       
3.0986       1.51        0.037       
3.10499      1.578       0.039       
3.11141      1.671       0.04        
3.11785      1.646       0.039       
3.12431      1.751       0.04        
3.13079      1.701       0.04        
3.13729      1.772       0.044       
3.14381      1.808       0.045       
3.15035      1.965       0.043       
3.15691      2.034       0.041       
3.16349      2.065       0.041       
3.17009      2.109       0.041       
3.17671      2.186       0.041       
3.18336      2.232       0.04        
3.19002      2.327       0.041       
3.1967       2.465       0.043       
3.20341      2.676       0.046       
3.21014      2.769       0.048       
3.21689      2.739       0.049       
3.22366      2.798       0.052       
3.23045      2.863       0.054       
3.23726      2.989       0.057       
3.24409      2.875       0.052       
3.25095      2.913       0.052       
3.25783      3.093       0.052       
3.26473      3.068       0.052       
3.27165      3.085       0.052       
3.27859      3.196       0.055       
3.28556      3.172       0.053       
3.29255      3.17        0.053       
3.29956      3.052       0.05        
3.30659      3.179       0.053       
3.31364      3.262       0.053       
3.32072      3.205       0.053       
3.32782      3.287       0.055       
3.33495      3.142       0.053       
3.34209      3.295       0.055       
3.34926      3.217       0.056       
3.35646      3.237       0.055       
3.36367      3.099       0.053       
3.37091      3.248       0.057       
3.37817      3.142       0.056       
3.38546      3.163       0.055       
3.39277      3.191       0.055       
3.4001       3.062       0.053       
3.40746      3.156       0.055       
3.41484      3.102       0.055       
3.42225      3.096       0.057       
3.42968      3.322       0.061       
3.43713      3.277       0.057       
3.44461      3.334       0.057       
3.45211      3.142       0.055       
3.45964      3.068       0.053       
3.46719      2.99        0.053       
3.47477      3.          0.052       
3.48237      3.092       0.053       
3.49         3.055       0.053       
3.49765      3.089       0.055       
3.50533      3.106       0.057       
3.51303      2.963       0.053       
3.52076      3.058       0.053       
3.52851      3.063       0.055       
3.53629      3.066       0.055       
3.5441       3.121       0.055       
3.55193      3.16        0.055       
3.55978      3.108       0.053       
3.56767      3.051       0.053       
3.57558      3.128       0.055       
3.58351      3.121       0.052       
3.59148      2.988       0.05        
3.59946      3.012       0.05        
3.60748      3.102       0.048       
3.61552      3.058       0.046       
3.62359      2.988       0.046       
3.63169      3.037       0.047       
3.63981      3.141       0.048       
3.64796      3.125       0.048       
3.65614      3.081       0.047       
3.66435      3.107       0.048       
3.67258      3.064       0.048       
3.68084      3.124       0.048       
3.68913      3.053       0.048       
3.69745      3.008       0.05        
3.7058       3.056       0.05        
3.71417      3.082       0.051       
3.72258      3.067       0.051       
3.73101      3.207       0.055       
3.73947      3.212       0.056       
3.74796      3.573       0.065       
3.75647      4.112       0.078       
3.76502      4.298       0.084       
3.7736       3.957       0.077       
3.7822       3.389       0.064       
3.79084      3.064       0.057       
3.7995       2.799       0.052       
3.8082       2.712       0.051       
3.81692      2.657       0.051       
3.82568      2.612       0.05        
3.83446      2.594       0.048       
3.84328      2.453       0.045       
3.85213      2.461       0.045       
3.861        2.375       0.043       
3.86991      2.424       0.043       
3.87885      2.329       0.043       
3.88782      2.353       0.043       
3.89682      2.375       0.045       
3.90585      2.287       0.045       
3.91491      2.283       0.047       
3.92401      2.298       0.049       
3.93314      2.294       0.049       
3.94229      2.194       0.049       
3.95149      2.271       0.049       
3.96071      2.216       0.047       
3.96996      2.151       0.045       
3.97925      2.122       0.045       
3.98857      2.126       0.044       
3.99793      2.045       0.044       
4.00731      1.958       0.043       
4.01673      1.815       0.043       
4.02619      1.635       0.042       
4.03567      1.664       0.042       
4.04519      1.468       0.041       
4.05475      1.381       0.04        
4.06434      1.33        0.038       
4.07396      1.264       0.036       
4.08362      1.228       0.034       
4.09331      1.213       0.034       
4.10303      1.148       0.034       
4.11279      1.241       0.036       
4.12259      1.248       0.036       
4.13242      1.354       0.036       
4.14228      1.493       0.037       
4.15218      1.718       0.038       
4.16212      1.963       0.041       
4.17209      2.124       0.042       
4.1821       2.206       0.043       
4.19215      2.178       0.045       
4.20223      2.134       0.051       
4.21235      1.881       0.05        
4.2225       1.8         0.049       
4.23269      1.779       0.048       
4.24292      1.732       0.046       
4.25318      1.572       0.044       
4.26349      1.449       0.043       
4.27383      1.647       0.046       
4.2842       1.735       0.045       
4.29462      2.115       0.049       
4.30507      2.335       0.052       
4.31557      2.692       0.056       
4.3261       2.905       0.06        
4.33667      2.875       0.061       
4.34728      2.714       0.059       
4.35792      2.526       0.055       
4.36861      2.324       0.05        
4.37934      2.226       0.047       
4.3901       2.068       0.045       
4.40091      2.032       0.046       
4.41175      1.89        0.046       
4.42264      1.928       0.046       
4.43356      1.903       0.045       
4.44453      1.737       0.044       
4.45554      1.512       0.042       
4.46659      1.518       0.042       
4.47768      1.392       0.041       
4.48881      1.323       0.042       
4.49998      1.439       0.043       
4.5112       1.469       0.044       
4.52245      1.556       0.046       
4.53375      1.57        0.044       
4.5451       1.548       0.042       
4.55648      1.364       0.04        
4.56791      1.351       0.038       
4.57938      1.338       0.038       
4.59089      1.329       0.038       
4.60245      1.444       0.04        
4.61405      1.35        0.041       
4.6257       1.38        0.042       
4.63739      1.257       0.042       
4.64912      1.244       0.042       
4.6609       1.066       0.041       
4.67272      1.039       0.038       
4.68459      1.045       0.039       
4.69651      1.019       0.039       
4.70847      0.935       0.038       
4.72047      0.951       0.038       
4.73252      0.968       0.039       
4.74462      0.949       0.041       
4.75677      0.966       0.043       
4.76896      1.052       0.043       
4.7812       1.044       0.043       
4.79348      1.205       0.042       
4.80582      1.29        0.042       
4.8182       1.498       0.042       
4.83063      1.71        0.044       
4.84311      1.824       0.045       
4.85563      1.629       0.046       
4.86821      1.491       0.043       
4.88083      1.445       0.041       
4.8935       1.332       0.04        
4.90623      1.192       0.038       
4.919        1.078       0.037       
4.93182      1.036       0.037       
4.9447       1.057       0.035       
4.95762      0.953       0.035       
4.97059      0.981       0.035       
4.98362      0.961       0.035       
4.9967       0.969       0.036       
5.00983      1.047       0.037       
5.02301      1.143       0.036       
5.03624      1.32        0.038       
5.04952      1.371       0.038       
5.06286      1.584       0.04        
5.07625      1.763       0.044       
5.0897       1.998       0.046       
5.1032       2.177       0.049       
5.11675      2.446       0.053       
5.13036      2.411       0.053       
5.14402      2.029       0.05        
5.15773      1.629       0.046       
5.1715       1.455       0.041       
5.18533      1.352       0.04        
5.19921      1.237       0.038       
5.21315      1.222       0.038       
5.22714      1.216       0.036       
5.24119      1.193       0.035       
5.2553       1.102       0.035       
5.26947      1.116       0.033       
5.28369      1.135       0.034       

5.29253      1.06204     0.0002629   
5.34572      1.02645     0.0002146   
5.39945      1.01323     0.0002222   
5.45371      0.958728    0.0002629   
5.50852      1.02039     0.0002621   
5.56389      1.29755     0.0002458   
5.6198       1.77796     0.0002298   
5.67628      1.69314     0.0002209   
5.73333      1.37054     0.0002372   
5.79095      1.19292     0.0002405   
5.84915      1.12855     0.000227    
5.90794      1.56506     0.0001765   
5.96732      0.97969     0.0002154   
6.02729      1.08955     0.0002105   
6.08787      1.14343     0.0002075   
6.14905      0.925758    0.0002569   
6.21085      0.894783    0.0002785   
6.27327      0.879108    0.0002435   
6.33632      0.948451    0.0002295   
6.4          1.31773     0.0002096   
6.46432      0.703685    0.0002116   
6.52929      0.679506    0.00025     
6.59491      0.923969    0.0002299   
6.66119      1.02016     0.0002606   
6.72814      1.01955     0.0002305   
6.79576      1.33243     0.0002206   
6.86406      0.956277    0.0002229   
6.93304      0.830933    0.0002338   
7.00272      0.902693    0.0002564   
7.0731       1.00634     0.0002572   
7.14419      1.07622     0.0002796   
7.21599      1.56459     0.0002507   
7.28851      1.29882     0.0002595   
7.36176      1.30328     0.0002963   
7.43575      1.21984     0.0002903   
7.51048      1.1285      0.0002763   
7.58596      1.11343     0.0002442   
7.6622       1.19366     0.0002345   
7.73921      1.32515     0.0002639   
7.81699      1.44659     0.0002738   
7.89555      1.33535     0.0002989   
7.9749       0.902984    0.0002739   
8.05505      0.838919    0.0003116   
8.13601      1.07667     0.0002977   
8.21778      1.29994     0.0003052   
8.30037      1.3292      0.000291    
8.38379      1.24362     0.0002797   
8.46805      1.1633      0.000288    
8.55316      1.10143     0.0002854   
8.63912      1.19673     0.0002921   
8.72594      1.38149     0.000288    
8.81364      1.32857     0.0003084   
8.90222      1.11729     0.0003333   
8.99169      1.17109     0.0003384   
9.08206      1.26446     0.0003333   
9.17333      1.10278     0.000332    
9.26553      1.06618     0.000343    
9.35865      1.15282     0.0003296   
9.45271      1.17004     0.0003238   
9.54771      1.18296     0.0003207   
9.64366      1.1904      0.0003253   
9.74059      1.2591      0.0003243   
9.83848      1.2786      0.0003221   
9.93736      1.26729     0.0003344   
10.0372      1.33057     0.0003232   
10.1381      1.3865      0.0003435   
10.24        1.39992     0.0003603   
10.3429      1.36042     0.0003567   
10.4469      1.26898     0.0003462   
10.5519      1.22736     0.0003496   
10.6579      1.187       0.0003395   
10.765       1.19932     0.0003648   
10.8732      1.29383     0.0003654   
10.9825      1.46113     0.000346    
11.0929      1.62551     0.0003303   
11.2044      1.66243     0.0003369   
11.317       1.64108     0.0003378   
11.4307      1.61442     0.0003466   
11.5456      1.72347     0.0003465   
11.6616      1.72664     0.0003556   
11.7788      1.69885     0.0003397   
11.8972      1.68196     0.0003589   
12.0168      1.62276     0.0003693   
12.1375      1.51473     0.000367    
12.2595      1.47188     0.0003699   
12.3827      1.50316     0.0003638   
12.5072      1.53282     0.0003618   
12.6329      1.52735     0.0003629   
12.7599      1.55983     0.0003849   
12.8881      1.65689     0.0003751   
13.0176      1.56895     0.0003775   
13.1484      1.56729     0.0003771   
13.2806      1.55057     0.0003974   
13.4141      1.56869     0.0003861   
13.5489      1.5737      0.0003825   
13.6851      1.62099     0.0003859   
13.8226      1.62913     0.0003895   
13.9615      1.57642     0.0003962   
14.1018      1.58881     0.0004008   
14.2436      1.58445     0.0004011   
14.3867      1.62109     0.0004027   
14.5313      1.65836     0.000412    
14.6773      1.67365     0.0004102   
14.8249      1.6985      0.0004075   
14.9738      1.72211     0.000408    
15.1243      1.70189     0.0004164   
15.2763      1.6049      0.0004092   
15.4299      1.5773      0.0004151   
15.5849      1.60054     0.0004261   
15.7416      1.6135      0.0004223   
15.8998      1.57893     0.0004285   
16.0596      1.55174     0.0004284   
16.221       1.56643     0.0004337   
16.384       1.56031     0.0004399   
16.5487      1.54505     0.0004356   
16.715       1.52247     0.0004353   
16.883       1.54077     0.0004326   
17.0527      1.60584     0.0004332   
17.224       1.66829     0.0004327   
17.3971      1.63892     0.0004364   
17.572       1.63011     0.0004361   
17.7486      1.62722     0.0004411   
17.927       1.61036     0.0004378   
18.1071      1.56817     0.000443    
18.2891      1.57705     0.0004392   
18.4729      1.55751     0.0004358   
18.6586      1.61357     0.0004373   
18.8461      1.67727     0.0004338   
19.0355      1.67305     0.0004301   
19.2268      1.68932     0.0004308   
19.4201      1.62857     0.0004244   
19.6152      1.64804     0.0004275   
19.8124      1.62333     0.0004248   
20.0115      1.64018     0.0004217   
20.2126      1.67333     0.000417    
20.4158      1.69032     0.0004239   
20.621       1.68325     0.0004203   
20.8282      1.66912     0.0004146   
21.0375      1.69901     0.0004207   
21.249       1.67736     0.000412    
21.4625      1.65837     0.0004097   
21.6782      1.66931     0.0004117   
21.8961      1.65885     0.0004052   
22.1162      1.61269     0.0004033   
22.3384      1.64331     0.0004014   
22.5629      1.64557     0.0003995   
22.7897      1.64346     0.0003935   
23.0187      1.64446     0.0003881   
23.2501      1.63545     0.0003881   
23.4838      1.6225      0.0003856   
23.7198      1.6492      0.0003824   
23.9582      1.57576     0.000373    
24.1989      1.60068     0.0003711   
24.4422      1.63256     0.0003736   
24.6878      1.62196     0.0003674   
24.9359      1.61698     0.0003689   
25.1865      1.60841     0.0003641   
25.4397      1.61759     0.0003617   
25.6953      1.60793     0.0003602   
25.9536      1.60911     0.0003533   
26.2144      1.6138      0.000354    
26.4779      1.59589     0.000354    
26.744       1.61187     0.0003512   
27.0128      1.57348     0.0003555   
27.2843      1.5821      0.000348    
27.5585      1.60469     0.0003464   
27.8354      1.56241     0.0003467   
28.1152      1.56743     0.0003478   
28.3978      1.55471     0.0003461   
28.6832      1.55635     0.0003409   
28.9714      1.55574     0.0003458   
29.2626      1.55918     0.0003469   
29.5567      1.5553      0.0003458   
29.8538      1.55216     0.000348    
30.1538      1.56703     0.0003516   
30.4569      1.52608     0.0003429   
30.7629      1.56335     0.0003466   
31.0721      1.54082     0.0003475   
31.3844      1.55358     0.0003461   
31.6998      1.53774     0.0003517   
32.0184      1.52198     0.0003464   
32.3402      1.52258     0.0003487   
32.6652      1.53404     0.000347    
32.9935      1.5233      0.0003491   
33.3251      1.52171     0.0003446   
33.66        1.51675     0.0003463   
33.9983      1.49505     0.0003461   
34.34        1.4845      0.0003487   
34.6852      1.47176     0.0003465   
35.0337      1.48613     0.0003499   
35.3858      1.4805      0.000349    
35.7415      1.44662     0.00035     
36.1007      1.45224     0.0003494   
36.4635      1.44592     0.0003496   
36.83        1.44229     0.000349    
37.2001      1.44664     0.0003536   
37.574       1.43505     0.0003541   
37.9516      1.42157     0.0003598   
38.3331      1.4051      0.0003556   
38.7183      1.40202     0.0003577   
39.1074      1.41225     0.0003576   
39.5005      1.41757     0.0003658   
39.8975      1.38836     0.0003659   
40.2984      1.36922     0.0003631   
40.7035      1.3695      0.0003658   
41.1125      1.36906     0.0003689   
41.5257      1.37395     0.0003672   
41.9431      1.35336     0.0003695   
42.3646      1.34484     0.0003698   
42.7904      1.34252     0.0003751   
43.2204      1.32526     0.0003812   
43.6548      1.33667     0.0003783   
44.0936      1.31709     0.0003854   
44.5367      1.30696     0.0003874   
44.9843      1.29202     0.0003904   
45.4364      1.2868      0.0003897   
45.8931      1.28295     0.0003943   
46.3543      1.27458     0.0003968   
46.8202      1.26844     0.0003973   
47.2907      1.26711     0.0004102   
47.766       1.26223     0.0004105   
48.2461      1.23512     0.0004146   
48.731       1.23896     0.0004172   
49.2207      1.23566     0.0004144   
49.7154      1.22557     0.0004269   
50.2151      1.21153     0.0004313   
50.7197      1.18819     0.0004319   
51.2295      1.19395     0.0004399   
51.7443      1.18187     0.0004444   
52.2644      1.16712     0.000448    
52.7896      1.17635     0.0004539   
53.3202      1.14121     0.0004596   
53.8561      1.15173     0.0004671   
54.3973      1.14305     0.0004753   
54.944       1.13263     0.0004766   
55.4963      1.1259      0.0004899   
56.054       1.11105     0.0004922   
56.6174      1.11074     0.0004953   
57.1864      1.08726     0.0005032   
57.7611      1.08284     0.0005078   
58.3416      1.08674     0.0005208   
58.928       1.06669     0.0005278   
59.5202      1.07172     0.0005336   
60.1184      1.05861     0.0005467   
60.7226      1.04005     0.0005458   
61.3329      1.02687     0.0005589   
61.9493      1.01042     0.0005633   
62.5719      1.01467     0.0005748   
63.2008      1.00444     0.0005875   
63.8359      0.997113    0.0005907   
64.4775      0.988773    0.0006044   
65.1255      0.988382    0.0006117   
65.7801      0.964138    0.0006197   
66.4412      0.962054    0.0006357   
67.1089      0.951127    0.0006385   
67.7834      0.941935    0.0006559   
68.4646      0.937176    0.0006735   
69.1527      0.921572    0.0006696   
69.8477      0.92038     0.0006879   
70.5497      0.90738     0.0007084   
71.2587      0.907197    0.000706    
71.9749      0.893144    0.0007264   
72.6982      0.890614    0.0007475   
73.4289      0.890431    0.0007506   
74.1669      0.867188    0.0007615   
74.9123      0.850406    0.0007783   
75.6651      0.8542      0.0007914   
76.4256      0.854051    0.0007993   
77.1937      0.837598    0.0008332   
77.9695      0.820396    0.0008399   
78.7531      0.823758    0.0008416   
79.5446      0.814864    0.0008727   
80.344       0.801054    0.0008999   
81.1515      0.800499    0.0009017   
81.9671      0.790834    0.0009212   
82.7909      0.791316    0.0009416   
83.623       0.769947    0.0009617   
84.4634      0.761081    0.0009868   
85.3123      0.75013     0.0009962   
86.1697      0.746172    0.001014    
87.0357      0.734778    0.001023    
87.9104      0.739366    0.001061    
88.794       0.733863    0.001085    
89.6864      0.716509    0.001089    
90.5877      0.716718    0.00111     
91.4982      0.710772    0.00113     
92.4178      0.705529    0.001155    
93.3466      0.683366    0.001172    
94.2847      0.677939    0.001195    
95.2323      0.680978    0.001222    
96.1894      0.674805    0.00125     
97.1562      0.662391    0.001288    
98.1326      0.650455    0.001298    
99.1188      0.647288    0.001335    
100.115      0.64462     0.001346    
101.121      0.632875    0.00137     
102.137      0.632411    0.001398    
103.164      0.628882    0.001442    
104.201      0.616671    0.001483    
105.248      0.609219    0.001452    
106.306      0.601705    0.001499    
107.374      0.587455    0.001529    
108.453      0.58734     0.001562    
109.543      0.580533    0.001607    
110.644      0.571375    0.001645    
111.756      0.567517    0.001653    
112.879      0.569509    0.001711    
114.014      0.566559    0.001711    
115.16       0.564883    0.001749    
116.317      0.554509    0.001796    
117.486      0.546237    0.001826    
118.667      0.542886    0.001871    
119.86       0.532001    0.001873    
121.064      0.534687    0.001908    
122.281      0.527412    0.001928    
123.51       0.52266     0.001976    
124.751      0.520507    0.001989    
126.005      0.504873    0.002041    
127.271      0.51466     0.002063    
128.551      0.51168     0.002072    
129.842      0.50165     0.002113    
131.147      0.496389    0.002182    
132.465      0.487863    0.002184    
133.797      0.483368    0.00222     
135.141      0.479628    0.002273    
136.5        0.477428    0.002308    
137.872      0.474923    0.002351    
139.257      0.471628    0.002381    
140.657      0.470935    0.002436    
142.07       0.460827    0.00246     
143.498      0.453115    0.002465    
144.94       0.45482     0.002511    
146.397      0.447166    0.002573    
147.868      0.454704    0.002559    
149.355      0.441478    0.002627    
150.856      0.445842    0.00266     
152.372      0.435344    0.002635    
153.903      0.432319    0.002741    
155.45       0.433615    0.002734    
157.012      0.429693    0.002808    
158.59       0.424095    0.002794    
160.184      0.416443    0.002829    
161.794      0.420782    0.002868    
163.42       0.415399    0.002922    
165.062      0.413612    0.002963    
166.721      0.412326    0.003027    
168.397      0.407449    0.003018    
170.089      0.405124    0.003077    
171.799      0.399615    0.003039    
173.525      0.402263    0.00309     
175.269      0.401047    0.003142    
177.031      0.397791    0.003167    
178.81       0.397039    0.003193    
180.607      0.400597    0.003213    
182.422      0.388508    0.003273    
184.256      0.38857     0.003325    
186.107      0.386783    0.003401    
187.978      0.385919    0.003346    
189.867      0.383771    0.003466    
191.775      0.384948    0.003386    
193.703      0.383151    0.003401    
195.65       0.378667    0.003483    
197.616      0.370765    0.003499    
199.602      0.375901    0.003535    
201.608      0.381194    0.003554    
203.634      0.373207    0.003557    
205.681      0.369599    0.003591    
207.748      0.372463    0.00368     
209.836      0.372566    0.00371     
211.945      0.364287    0.003681    
214.075      0.369009    0.003696    
216.226      0.370679    0.003737    
218.399      0.360363    0.003765    
220.594      0.367243    0.003818    
222.811      0.361496    0.003836    
225.051      0.365952    0.003846    
227.313      0.368178    0.003846    
229.597      0.365299    0.003836    
231.905      0.36307     0.003872    
234.235      0.369216    0.003954    
236.589      0.357784    0.003989    
238.967      0.350669    0.003885    
241.369      0.352627    0.003991    
243.795      0.359589    0.00401     
246.245      0.35846     0.003976    
248.72       0.358348    0.004031    
251.22       0.354843    0.003997    
253.744      0.353732    0.004043    
256.295      0.354452    0.004059    
258.87       0.35228     0.004143    
261.472      0.351147    0.00414     
264.1        0.355399    0.004119    
266.754      0.353359    0.004101    
269.435      0.350029    0.004155    
272.143      0.355996    0.004151    
274.878      0.351891    0.00416     
277.641      0.351249    0.004195    
280.431      0.354191    0.004156    
283.25       0.356111    0.004183    
286.096      0.350394    0.004231    
288.972      0.352789    0.004227    
291.876      0.353489    0.004215    
294.809      0.358348    0.004211    
297.772      0.348826    0.004149    
300.765      0.356718    0.004296    
303.788      0.357285    0.004318    
306.841      0.353576    0.004288    
309.925      0.353536    0.004262    
313.039      0.352492    0.004285    
316.186      0.35485     0.004289    
319.363      0.353184    0.004323    
322.573      0.353759    0.004372    
325.815      0.355533    0.004296    
329.089      0.357948    0.004193    
332.397      0.353885    0.004305    
335.738      0.352406    0.004312    
339.112      0.355851    0.004379    
342.52       0.365243    0.00428     
345.962      0.362748    0.004346    
349.439      0.36208     0.00432     
352.951      0.35692     0.004256    
356.498      0.362412    0.004329    
360.081      0.35338     0.004322    
363.7        0.3513      0.004252    
367.356      0.361526    0.004389    
371.048      0.368305    0.004277    
374.777      0.36232     0.004276    
378.543      0.364479    0.004284    
382.348      0.366175    0.004227    
386.19       0.372025    0.004285    
390.072      0.368427    0.004265    
393.992      0.363716    0.004227    
397.952      0.376306    0.004318    
401.951      0.370652    0.004271    
405.991      0.364185    0.00423     
410.071      0.368652    0.004198    
414.193      0.363805    0.004151    
418.355      0.377877    0.004183    
422.56       0.372941    0.004169    
426.807      0.369155    0.004159    
431.096      0.374784    0.004115    
435.429      0.376993    0.004165    
439.805      0.384765    0.004128    
444.225      0.367493    0.004126    
448.69       0.37187     0.004098    
453.199      0.376444    0.004098    
457.754      0.381196    0.004096    
462.354      0.374737    0.004067    
467.001      0.381007    0.00409     
471.695      0.383446    0.004161    
476.435      0.388757    0.004143    
481.224      0.392088    0.004052    
486.06       0.391058    0.004069    
490.945      0.399214    0.004047    
495.879      0.392282    0.004064    
500.863      0.393017    0.003983    
505.897      0.38962     0.00402     
510.981      0.405172    0.004117    
516.117      0.396288    0.004109    
521.304      0.399036    0.004116    
526.543      0.399171    0.004144    
531.835      0.399497    0.004209    
537.18       0.398426    0.004227    
542.579      0.40533     0.004356    
548.032      0.411125    0.004334    
553.539      0.404945    0.004515    
559.103      0.409751    0.004565    
564.722      0.409819    0.004769    
570.397      0.405097    0.00488     
576.13       0.416126    0.00488     
581.92       0.435174    0.005017    
587.769      0.415389    0.005313    
593.676      0.43179     0.005503    
599.643      0.422416    0.005612    
