F.G.Perey et al, Rept: Oak Ridge National Lab. Reports, No.4823 (1972)
NatO(n,tot)
MeV          Barns       Error (Barns)   
0.18738      1.213       0.973       
0.18747      2.288       0.77        
0.18757      1.997       1.124       
0.18766      2.279       1.088       
0.18776      1.996       1.124       
0.18795      3.149       0.873       
0.18804      2.276       1.088       
0.18823      0.124       1.886       
0.18833      2.518       1.062       
0.18843      2.282       0.843       
0.18852      1.938       0.878       
0.18862      2.15        0.782       
0.18871      0.485       0.878       
0.18881      2.278       1.088       
0.1889       2.28        0.943       
0.1891       0.423       0.795       
0.18919      1.6         0.776       
0.18929      2.904       1.026       
0.18939      4.758       1.615       
0.18948      1.2         1.257       
0.18958      2.274       1.088       
0.18967      3.345       1.218       
0.18977      0.3         0.858       
0.18987      1.831       0.994       
0.18996      1.205       0.973       
0.19006      2.27        1.333       
0.19016      1.549       1.033       
0.19026      2.72        1.042       
0.19035      4.412       1.634       
0.19045      1.998       0.795       
0.19055      3.345       1.218       
0.19064      1.55        1.033       
0.19074      0.301       0.858       
0.19084      1.833       0.994       
0.19103      3.968       1.663       
0.19113      1.938       0.878       
0.19123      0.58        0.994       
0.19133      0.86        1.033       
0.19142      1.447       0.856       
0.19152      2.281       0.843       
0.19162      2.721       1.042       
0.19172      1.994       1.124       
0.19182      2.721       1.042       
0.19191      4.209       1.646       
0.19201      3.349       1.218       
0.19211      4.763       1.615       
0.19221      3.97        1.663       
0.19231      2.12        0.858       
0.19241      1.994       1.124       
0.19251      3.141       1.235       
0.1926       0.766       0.832       
0.1928       1.208       0.973       
0.1929       1.649       1.176       
0.193        1.939       0.878       
0.1932       0.929       0.932       
0.1933       1.766       0.759       
0.1934       2.516       1.062       
0.1935       2.516       1.062       
0.1936       1.994       1.124       
0.1937       2.003       0.795       
0.1938       4.601       1.623       
0.19399      2.074       0.965       
0.19409      1.203       1.257       
0.19419      2.271       1.333       
0.19429      1.068       0.673       
0.19439      2.515       1.062       
0.19449      2.117       0.858       
0.1946       1.703       0.717       
0.1947       2.277       0.943       
0.1948       2.9         1.257       
0.1949       3.691       1.193       
0.195        1.203       1.089       
0.1951       2.07        0.965       
0.1952       1.598       0.776       
0.1953       2.617       1.288       
0.1954       2.9         1.257       
0.1955       0.928       0.932       
0.1956       1.599       0.776       
0.1957       2.514       1.062       
0.1958       1.83        0.994       
0.19591      2.898       1.257       
0.19601      2.146       0.782       
0.19611      1.835       0.811       
0.19631      4.208       1.646       
0.19641      2.775       0.899       
0.19652      2.626       0.911       
0.19662      3.842       1.184       
0.19672      1.648       1.176       
0.19682      1.204       1.089       
0.19692      2.074       0.965       
0.19703      0.586       0.811       
0.19713      0.139       0.943       
0.19723      1.73        0.901       
0.19733      2.28        0.843       
0.19743      3.694       1.193       
0.19754      2.46        0.925       
0.19764      3.214       1.003       
0.19774      1.942       0.62        
0.19785      3.01        0.789       
0.19795      4.212       1.164       
0.19805      2.428       0.831       
0.19815      1.206       0.889       
0.19826      3.474       0.986       
0.19836      2.801       0.802       
0.19846      2.07        0.965       
0.19857      2.07        0.965       
0.19867      2.28        0.843       
0.19877      1.653       0.832       
0.19888      2.071       0.965       
0.19898      2.28        0.943       
0.19909      2.729       0.737       
0.19919      3.528       1.203       
0.19929      2.146       0.782       
0.1994       2.687       0.81        
0.1995       3.214       1.003       
0.19961      2.803       0.802       
0.19971      2.689       0.81        
0.19981      1.999       0.795       
0.19992      1.836       0.811       
0.20002      2.045       0.733       
0.20013      3.031       0.88        
0.20023      3.475       0.986       
0.20034      3.59        0.979       
0.20044      1.418       0.797       
0.20055      1.655       0.832       
0.20065      1.762       0.759       
0.20076      2.169       0.722       
0.20086      2.8         0.802       
0.20097      4.212       1.164       
0.20107      1.598       0.776       
0.20118      2.28        0.843       
0.20128      2.801       0.802       
0.20139      2.801       0.802       
0.20149      2.279       0.943       
0.2016       2.117       0.858       
0.20171      2.46        0.925       
0.20181      3.588       0.979       
0.20192      1.392       0.748       
0.20202      2.282       0.77        
0.20213      5.042       1.603       
0.20224      2.285       0.77        
0.20234      1.206       0.973       
0.20245      1.837       0.811       
0.20256      2.837       0.677       
0.20266      2.799       0.802       
0.20277      2.583       0.692       
0.20288      2.91        0.726       
0.20298      2.379       0.661       
0.20309      2.584       0.692       
0.2032       3.25        0.866       
0.2033       3.499       0.762       
0.20341      2.905       0.795       
0.20352      1.758       0.759       
0.20363      3.348       0.994       
0.20373      2.146       0.782       
0.20384      2.491       0.698       
0.20395      5.282       1.594       
0.20406      2.08        0.683       
0.20416      2.516       1.062       
0.20427      3.352       0.994       
0.20438      4.102       1.169       
0.20449      3.077       0.717       
0.2047       0.904       0.692       
0.20481      4.214       1.164       
0.20492      2.407       0.759       
0.20503      2.149       0.782       
0.20514      3.528       1.203       
0.20525      2.801       0.802       
0.20535      3.191       0.778       
0.20546      2.378       0.661       
0.20557      1.897       0.657       
0.20568      2.491       0.698       
0.20579      4.602       1.148       
0.2059       2.079       0.683       
0.20601      2.391       0.705       
0.20612      3.01        0.789       
0.20623      3.446       0.856       
0.20634      2.186       0.675       
0.20645      2.462       0.925       
0.20656      2.406       0.759       
0.20667      1.661       0.588       
0.20678      2.837       0.677       
0.20689      4.096       1.169       
0.207        2.631       0.645       
0.20711      2.553       0.649       
0.20722      2.523       0.751       
0.20733      3.452       0.856       
0.20744      1.448       0.856       
0.20755      2.201       0.635       
0.20766      2.709       0.64        
0.20777      1.424       0.563       
0.20788      4.983       1.135       
0.20799      3.192       0.778       
0.2081       2.285       0.667       
0.20821      4.32        1.159       
0.20832      3.89        0.964       
0.20843      3.075       0.717       
0.20855      3.251       0.866       
0.20866      2.405       0.759       
0.20877      3.351       0.861       
0.20888      3.039       0.623       
0.20899      3.009       0.789       
0.2091       0.995       0.583       
0.20921      1.658       0.679       
0.20933      1.843       0.628       
0.20944      1.911       0.745       
0.20955      3.696       0.973       
0.20966      4.425       0.942       
0.20977      4.514       1.151       
0.20989      2.283       0.77        
0.21         2.722       1.042       
0.21011      2.824       0.731       
0.21022      3.7         0.844       
0.21034      2.668       0.605       
0.21045      4.219       0.95        
0.21056      2.154       0.553       
0.21068      2.597       0.609       
0.21079      3.354       0.702       
0.2109       3.062       0.555       
0.21102      3.698       0.754       
0.21113      3.287       0.706       
0.21124      2.776       0.636       
0.21136      2.915       0.562       
0.21147      3.29        0.706       
0.21158      3.703       0.689       
0.2117       2.633       0.576       
0.21181      3.571       0.76        
0.21192      2.378       0.661       
0.21204      3.7         0.754       
0.21215      2.855       0.595       
0.21227      2.628       0.743       
0.21238      2.209       0.601       
0.2125       1.897       0.657       
0.21261      2.979       0.626       
0.21272      3.65        0.69        
0.21284      4.216       0.95        
0.21295      3.761       0.752       
0.21307      3.273       0.773       
0.21318      3.65        0.69        
0.2133       2.66        0.549       
0.21341      3.463       0.647       
0.21353      3.3         0.653       
0.21365      2.732       0.522       
0.21376      2.609       0.506       
0.21388      2.589       0.488       
0.21399      3.405       0.607       
0.21411      3.429       0.766       
0.21422      2.487       0.558       
0.21434      3.916       0.834       
0.21446      6.053       1.573       
0.21457      2.632       0.645       
0.21469      2.287       0.596       
0.2148       3.121       0.661       
0.21492      3.053       0.665       
0.21504      2.525       0.613       
0.21515      1.94        0.62        
0.21527      3.597       0.692       
0.21539      3.302       0.653       
0.2155       2.104       0.641       
0.21562      3.223       0.709       
0.21574      3.243       0.548       
0.21585      3.54        0.694       
0.21597      4.035       0.742       
0.21609      2.083       0.557       
0.21621      2.287       0.569       
0.21632      3.65        0.69        
0.21644      1.661       0.588       
0.21656      2.225       0.549       
0.21668      2.848       0.633       
0.2168       3.097       0.62        
0.21691      3.258       0.614       
0.21703      2.985       0.668       
0.21715      4.026       0.677       
0.21727      2.528       0.475       
0.21739      3.155       0.504       
0.2175       3.298       0.653       
0.21762      3.483       0.569       
0.21774      3.179       0.659       
0.21786      3.033       0.623       
0.21798      1.535       0.442       
0.2181       3.09        0.529       
0.21822      2.564       0.432       
0.21834      2.657       0.549       
0.21846      4.017       0.588       
0.21858      3.985       0.588       
0.2187       2.58        0.529       
0.21881      2.595       0.457       
0.21893      3.702       0.597       
0.21905      3.116       0.506       
0.21917      3.157       0.466       
0.21929      2.916       0.493       
0.21941      3.747       0.636       
0.21953      3.358       0.609       
0.21965      3.117       0.506       
0.21977      2.66        0.549       
0.2199       2.917       0.493       
0.22002      2.054       0.423       
0.22014      3.473       0.54        
0.22026      2.817       0.541       
0.22038      2.72        0.483       
0.2205       3.359       0.544       
0.22062      2.852       0.447       
0.22074      3.361       0.52        
0.22086      2.688       0.441       
0.22098      3.506       0.539       
0.22111      3.          0.51        
0.22123      2.174       0.51        
0.22135      3.215       0.525       
0.22147      5.175       0.922       
0.22159      3.049       0.531       
0.22171      2.748       0.451       
0.22184      3.633       0.564       
0.22196      2.541       0.412       
0.22208      4.251       0.621       
0.2222       3.194       0.423       
0.22233      4.041       0.553       
0.22245      3.026       0.416       
0.22257      2.991       0.396       
0.22269      3.361       0.395       
0.22282      3.583       0.424       
0.22294      2.974       0.43        
0.22306      3.296       0.408       
0.22319      3.315       0.419       
0.22331      3.387       0.444       
0.22343      3.704       0.533       
0.22356      3.706       0.509       
0.22368      4.146       0.674       
0.2238       3.402       0.572       
0.22393      3.363       0.497       
0.22405      3.322       0.545       
0.22417      3.05        0.531       
0.2243       3.108       0.553       
0.22442      3.435       0.541       
0.22455      3.302       0.479       
0.22467      2.885       0.446       
0.2248       2.885       0.446       
0.22492      3.27        0.48        
0.22505      3.362       0.52        
0.22517      3.189       0.465       
0.2253       2.872       0.516       
0.22542      3.114       0.452       
0.22555      3.577       0.537       
0.22567      3.869       0.557       
0.2258       2.955       0.491       
0.22592      3.463       0.441       
0.22605      3.314       0.432       
0.22617      3.334       0.461       
0.2263       3.598       0.491       
0.22642      3.437       0.442       
0.22655      2.942       0.371       
0.22668      3.243       0.421       
0.2268       3.251       0.409       
0.22693      3.428       0.417       
0.22706      2.776       0.413       
0.22718      3.016       0.455       
0.22731      2.115       0.402       
0.22743      2.614       0.471       
0.22756      3.092       0.426       
0.22769      2.989       0.472       
0.22782      3.989       0.502       
0.22794      3.067       0.487       
0.22807      2.95        0.431       
0.2282       2.58        0.445       
0.22832      2.989       0.472       
0.22845      2.492       0.436       
0.22858      2.757       0.437       
0.22871      2.493       0.436       
0.22884      2.986       0.456       
0.22896      3.329       0.499       
0.22909      2.574       0.41        
0.22922      2.948       0.419       
0.22935      3.247       0.464       
0.22948      3.986       0.554       
0.22961      3.432       0.428       
0.22973      2.65        0.396       
0.22986      2.482       0.387       
0.22999      3.461       0.441       
0.23012      2.01        0.397       
0.23025      3.172       0.483       
0.23038      4.015       0.553       
0.23051      3.364       0.43        
0.23064      2.681       0.396       
0.23077      2.565       0.432       
0.2309       2.89        0.42        
0.23103      3.269       0.48        
0.23116      3.448       0.475       
0.23129      3.622       0.438       
0.23142      3.345       0.376       
0.23155      3.345       0.376       
0.23168      3.4         0.384       
0.23181      3.176       0.355       
0.23194      3.016       0.346       
0.23207      2.294       0.294       
0.2322       2.789       0.359       
0.23233      3.094       0.351       
0.23246      2.993       0.339       
0.23259      3.303       0.387       
0.23272      3.115       0.373       
0.23285      2.761       0.392       
0.23299      2.899       0.356       
0.23312      3.337       0.431       
0.23325      2.962       0.361       
0.23338      3.269       0.378       
0.23351      2.673       0.349       
0.23364      2.964       0.37        
0.23378      3.685       0.451       
0.23391      2.627       0.365       
0.23404      3.76        0.508       
0.23417      2.735       0.426       
0.2343       3.336       0.445       
0.23444      3.414       0.443       
0.23457      3.015       0.385       
0.2347       2.452       0.351       
0.23484      3.522       0.426       
0.23497      3.986       0.502       
0.2351       3.179       0.411       
0.23524      3.326       0.376       
0.23537      2.721       0.362       
0.2355       3.828       0.484       
0.23564      3.384       0.394       
0.23577      3.348       0.367       
0.2359       2.919       0.371       
0.23604      3.194       0.355       
0.23617      3.288       0.377       
0.23631      3.295       0.362       
0.23644      3.347       0.352       
0.23657      2.457       0.31        
0.23671      3.755       0.377       
0.23684      2.801       0.345       
0.23698      3.045       0.359       
0.23711      3.169       0.424       
0.23725      2.994       0.396       
0.23738      3.82        0.419       
0.23752      2.761       0.368       
0.23765      3.033       0.317       
0.23779      3.028       0.333       
0.23793      3.298       0.322       
0.23806      3.195       0.371       
0.2382       2.961       0.354       
0.23833      3.469       0.373       
0.23847      3.554       0.355       
0.2386       3.453       0.373       
0.23874      2.886       0.326       
0.23888      4.077       0.402       
0.23901      3.458       0.349       
0.23915      3.144       0.32        
0.23929      3.502       0.372       
0.23942      2.743       0.325       
0.23956      3.304       0.339       
0.2397       2.602       0.313       
0.23984      3.177       0.371       
0.23997      3.472       0.415       
0.24011      2.943       0.371       
0.24025      3.089       0.367       
0.24039      2.983       0.361       
0.24052      2.649       0.317       
0.24066      3.147       0.365       
0.2408       3.318       0.339       
0.24094      3.138       0.315       
0.24108      3.635       0.361       
0.24121      2.843       0.338       
0.24135      2.808       0.291       
0.24149      2.98        0.303       
0.24163      2.708       0.29        
0.24177      3.504       0.318       
0.24191      3.447       0.329       
0.24205      3.333       0.338       
0.24219      3.095       0.331       
0.24233      3.827       0.432       
0.24246      3.311       0.368       
0.2426       2.897       0.38        
0.24274      3.229       0.41        
0.24288      3.565       0.401       
0.24302      3.003       0.318       
0.24316      3.872       0.418       
0.2433       3.014       0.312       
0.24344      3.615       0.326       
0.24358      3.229       0.302       
0.24373      3.58        0.311       
0.24387      3.338       0.311       
0.24401      3.438       0.313       
0.24415      3.197       0.308       
0.24429      3.024       0.286       
0.24443      3.432       0.293       
0.24457      3.684       0.338       
0.24471      2.616       0.292       
0.24485      3.332       0.352       
0.245        3.13        0.35        
0.24514      3.2         0.335       
0.24528      2.938       0.335       
0.24542      3.809       0.366       
0.24556      3.331       0.352       
0.24571      3.279       0.327       
0.24585      3.472       0.323       
0.24599      2.95        0.303       
0.24613      2.569       0.286       
0.24628      3.066       0.289       
0.24642      2.762       0.281       
0.24656      3.106       0.316       
0.24671      3.707       0.352       
0.24685      3.511       0.312       
0.24699      3.118       0.3         
0.24714      3.391       0.315       
0.24728      3.317       0.346       
0.24742      2.824       0.291       
0.24757      3.117       0.287       
0.24771      3.286       0.293       
0.24786      3.583       0.321       
0.248        3.178       0.286       
0.24814      3.764       0.318       
0.24829      3.355       0.291       
0.24843      3.291       0.301       
0.24858      3.478       0.318       
0.24872      3.149       0.264       
0.24887      3.298       0.289       
0.24901      3.629       0.3         
0.24916      2.997       0.258       
0.2493       3.647       0.305       
0.24945      3.07        0.258       
0.24959      3.413       0.271       
0.24974      3.07        0.258       
0.24989      3.67        0.299       
0.25003      3.866       0.316       
0.25018      3.576       0.291       
0.25033      3.419       0.329       
0.25047      3.493       0.335       
0.25062      2.818       0.3         
0.25076      3.166       0.336       
0.25091      3.167       0.304       
0.25106      3.126       0.305       
0.25121      3.256       0.302       
0.25135      3.025       0.268       
0.2515       2.964       0.259       
0.25165      3.375       0.287       
0.2518       3.146       0.283       
0.25194      4.087       0.346       
0.25209      3.202       0.294       
0.25224      3.093       0.316       
0.25239      2.976       0.29        
0.25254      3.123       0.292       
0.25268      3.308       0.326       
0.25283      3.199       0.308       
0.25298      3.337       0.321       
0.25313      3.323       0.289       
0.25328      3.193       0.282       
0.25343      3.934       0.34        
0.25358      2.976       0.264       
0.25373      3.169       0.282       
0.25388      2.909       0.268       
0.25402      3.095       0.27        
0.25417      3.238       0.307       
0.25432      2.526       0.28        
0.25447      2.908       0.278       
0.25462      3.232       0.278       
0.25477      3.5         0.328       
0.25493      2.698       0.265       
0.25508      3.041       0.275       
0.25523      2.876       0.262       
0.25538      3.314       0.28        
0.25553      3.248       0.271       
0.25568      3.298       0.27        
0.25583      3.57        0.287       
0.25598      3.242       0.256       
0.25613      3.672       0.264       
0.25628      2.685       0.252       
0.25644      3.317       0.269       
0.25659      2.91        0.261       
0.25674      2.805       0.276       
0.25689      3.314       0.276       
0.25704      3.16        0.276       
0.2572       3.087       0.296       
0.25735      3.439       0.286       
0.2575       3.364       0.31        
0.25765      3.152       0.296       
0.25781      3.066       0.289       
0.25796      3.164       0.279       
0.25811      2.978       0.267       
0.25827      3.169       0.263       
0.25842      3.233       0.265       
0.25857      3.239       0.267       
0.25873      3.276       0.258       
0.25888      3.426       0.261       
0.25904      3.266       0.241       
0.25919      2.85        0.233       
0.25934      2.93        0.233       
0.2595       3.09        0.258       
0.25965      3.648       0.305       
0.25981      3.058       0.267       
0.25996      2.932       0.259       
0.26012      2.931       0.249       
0.26027      3.384       0.279       
0.26043      3.424       0.252       
0.26058      3.648       0.283       
0.26074      2.912       0.242       
0.26089      3.153       0.26        
0.26105      3.067       0.256       
0.26121      3.247       0.262       
0.26136      3.059       0.258       
0.26152      3.069       0.248       
0.26167      2.942       0.254       
0.26183      3.149       0.257       
0.26199      3.511       0.269       
0.26214      3.546       0.276       
0.2623       2.859       0.249       
0.26246      3.671       0.267       
0.26262      3.163       0.26        
0.26277      3.593       0.283       
0.26293      3.299       0.267       
0.26309      3.542       0.28        
0.26325      2.772       0.271       
0.2634       3.309       0.267       
0.26356      3.281       0.253       
0.26372      3.036       0.236       
0.26388      3.439       0.238       
0.26404      3.181       0.249       
0.2642       3.141       0.247       
0.26435      3.161       0.247       
0.26451      3.336       0.269       
0.26467      3.269       0.258       
0.26483      2.923       0.244       
0.26499      3.263       0.289       
0.26515      3.211       0.268       
0.26531      3.489       0.285       
0.26547      3.084       0.262       
0.26563      2.803       0.245       
0.26579      3.416       0.278       
0.26595      3.082       0.293       
0.26611      3.344       0.28        
0.26627      3.575       0.284       
0.26643      3.738       0.298       
0.26659      3.657       0.305       
0.26675      3.126       0.256       
0.26691      3.29        0.263       
0.26708      3.446       0.267       
0.26724      3.437       0.264       
0.2674       3.05        0.248       
0.26756      3.437       0.286       
0.26772      3.193       0.26        
0.26788      2.848       0.236       
0.26805      3.55        0.279       
0.26821      3.609       0.287       
0.26837      2.92        0.265       
0.26853      3.651       0.294       
0.2687       3.155       0.245       
0.26886      3.304       0.242       
0.26902      3.41        0.24        
0.26919      3.397       0.22        
0.26935      3.494       0.239       
0.26951      3.416       0.225       
0.26968      3.182       0.216       
0.26984      3.168       0.227       
0.27         3.39        0.218       
0.27017      3.294       0.231       
0.27033      3.436       0.235       
0.2705       3.332       0.224       
0.27066      3.77        0.269       
0.27083      3.134       0.224       
0.27099      2.954       0.227       
0.27115      3.264       0.234       
0.27132      3.23        0.229       
0.27149      2.868       0.216       
0.27165      2.905       0.219       
0.27182      3.026       0.225       
0.27198      3.288       0.232       
0.27215      2.903       0.23        
0.27231      3.38        0.248       
0.27248      3.193       0.246       
0.27265      3.248       0.234       
0.27281      3.363       0.248       
0.27298      3.661       0.237       
0.27315      3.363       0.239       
0.27331      3.058       0.22        
0.27348      3.816       0.253       
0.27365      3.479       0.216       
0.27381      3.313       0.237       
0.27398      3.4         0.268       
0.27415      3.206       0.244       
0.27432      3.693       0.27        
0.27449      3.302       0.258       
0.27465      3.113       0.247       
0.27482      3.551       0.243       
0.27499      2.901       0.235       
0.27516      3.58        0.253       
0.27533      3.386       0.239       
0.2755       3.573       0.258       
0.27567      3.378       0.231       
0.27584      3.162       0.231       
0.276        3.539       0.251       
0.27617      3.235       0.245       
0.27634      3.557       0.234       
0.27651      3.477       0.234       
0.27668      3.365       0.222       
0.27685      3.048       0.211       
0.27702      3.426       0.218       
0.27719      3.487       0.219       
0.27737      3.027       0.219       
0.27754      3.371       0.226       
0.27771      3.688       0.247       
0.27788      3.115       0.21        
0.27805      3.594       0.253       
0.27822      3.095       0.214       
0.27839      3.463       0.245       
0.27856      3.842       0.245       
0.27874      3.406       0.233       
0.27891      3.193       0.207       
0.27908      3.59        0.231       
0.27925      3.695       0.247       
0.27943      3.195       0.216       
0.2796       3.364       0.241       
0.27977      2.984       0.223       
0.27994      3.419       0.247       
0.28012      3.543       0.253       
0.28029      3.412       0.247       
0.28046      3.311       0.261       
0.28064      3.354       0.272       
0.28081      3.302       0.277       
0.28099      3.435       0.281       
0.28116      3.559       0.265       
0.28133      3.399       0.253       
0.28151      3.652       0.271       
0.28168      3.092       0.232       
0.28186      3.138       0.236       
0.28203      3.542       0.253       
0.28221      3.409       0.24        
0.28238      2.986       0.212       
0.28256      3.521       0.222       
0.28273      3.248       0.232       
0.28291      3.27        0.218       
0.28309      3.083       0.227       
0.28326      3.265       0.232       
0.28344      3.332       0.249       
0.28361      3.132       0.243       
0.28379      3.446       0.252       
0.28397      3.417       0.24        
0.28415      3.229       0.243       
0.28432      3.449       0.26        
0.2845       3.449       0.235       
0.28468      3.241       0.226       
0.28485      3.145       0.209       
0.28503      3.26        0.22        
0.28521      3.294       0.218       
0.28539      3.225       0.217       
0.28557      3.048       0.211       
0.28575      3.334       0.236       
0.28592      3.489       0.241       
0.2861       3.451       0.25        
0.28628      3.261       0.242       
0.28646      3.634       0.247       
0.28664      3.669       0.243       
0.28682      3.756       0.254       
0.287        3.168       0.22        
0.28718      3.42        0.22        
0.28736      3.239       0.222       
0.28754      3.506       0.225       
0.28772      3.679       0.252       
0.2879       3.377       0.234       
0.28808      3.01        0.227       
0.28826      3.011       0.227       
0.28844      3.363       0.236       
0.28862      3.485       0.238       
0.2888       3.257       0.217       
0.28899      3.44        0.214       
0.28917      3.37        0.207       
0.28935      3.237       0.208       
0.28953      3.288       0.209       
0.28971      3.443       0.227       
0.2899       3.319       0.221       
0.29008      3.251       0.236       
0.29026      3.357       0.233       
0.29044      3.495       0.229       
0.29063      3.609       0.236       
0.29081      3.507       0.229       
0.29099      3.497       0.224       
0.29118      3.399       0.236       
0.29136      2.927       0.22        
0.29154      3.004       0.219       
0.29173      3.233       0.226       
0.29191      3.646       0.229       
0.2921       3.597       0.236       
0.29228      2.914       0.201       
0.29247      3.43        0.225       
0.29265      4.006       0.256       
0.29284      3.292       0.222       
0.29302      3.24        0.216       
0.29321      2.775       0.198       
0.29339      3.411       0.199       
0.29358      3.358       0.207       
0.29376      3.251       0.196       
0.29395      3.264       0.208       
0.29414      3.507       0.218       
0.29432      3.525       0.207       
0.29451      3.134       0.203       
0.2947       3.645       0.223       
0.29488      3.179       0.197       
0.29507      3.385       0.21        
0.29526      3.622       0.218       
0.29545      3.48        0.205       
0.29563      3.251       0.196       
0.29582      3.384       0.2         
0.29601      3.39        0.205       
0.2962       3.033       0.189       
0.29639      3.31        0.2         
0.29658      3.396       0.206       
0.29677      3.303       0.206       
0.29695      3.199       0.202       
0.29714      3.501       0.229       
0.29733      3.719       0.238       
0.29752      3.158       0.196       
0.29771      3.446       0.2         
0.2979       3.393       0.196       
0.29809      3.426       0.204       
0.29828      3.298       0.182       
0.29847      3.317       0.187       
0.29866      3.304       0.185       
0.29885      3.227       0.176       
0.29905      3.367       0.182       
0.29924      3.339       0.188       
0.29943      3.664       0.198       
0.29962      3.161       0.183       
0.29981      3.187       0.183       
0.3          3.868       0.201       
0.3002       3.274       0.178       
0.30039      3.314       0.169       
0.30058      3.65        0.186       
0.30077      3.253       0.168       
0.30097      3.178       0.178       
0.30116      3.515       0.201       
0.30135      3.656       0.223       
0.30155      3.431       0.202       
0.30174      2.852       0.191       
0.30193      3.275       0.205       
0.30213      3.269       0.194       
0.30232      3.707       0.211       
0.30252      3.732       0.221       
0.30271      3.47        0.212       
0.3029       3.488       0.214       
0.3031       3.295       0.199       
0.3033       3.525       0.208       
0.30349      3.499       0.222       
0.30369      3.424       0.207       
0.30388      3.02        0.199       
0.30408      3.23        0.208       
0.30427      3.115       0.201       
0.30447      3.364       0.209       
0.30467      3.527       0.22        
0.30486      3.608       0.22        
0.30506      3.106       0.187       
0.30526      3.379       0.205       
0.30545      3.478       0.209       
0.30565      3.517       0.207       
0.30585      3.326       0.198       
0.30605      3.305       0.19        
0.30624      3.641       0.212       
0.30644      3.214       0.191       
0.30664      3.396       0.194       
0.30684      3.193       0.185       
0.30704      3.33        0.185       
0.30724      3.347       0.188       
0.30744      3.304       0.178       
0.30764      3.408       0.182       
0.30784      3.216       0.174       
0.30804      3.591       0.183       
0.30823      3.722       0.203       
0.30844      3.405       0.175       
0.30864      3.394       0.177       
0.30884      3.443       0.174       
0.30904      3.124       0.175       
0.30924      3.467       0.183       
0.30944      3.304       0.176       
0.30964      3.412       0.182       
0.30984      3.621       0.192       
0.31004      3.396       0.174       
0.31024      3.316       0.174       
0.31045      3.552       0.189       
0.31065      3.242       0.175       
0.31085      3.586       0.192       
0.31105      3.147       0.175       
0.31126      3.286       0.182       
0.31146      3.543       0.191       
0.31166      3.229       0.186       
0.31187      3.153       0.176       
0.31207      3.207       0.179       
0.31227      3.267       0.18        
0.31248      3.452       0.19        
0.31268      3.015       0.176       
0.31289      3.535       0.196       
0.31309      3.57        0.189       
0.3133       3.31        0.187       
0.3135       3.534       0.196       
0.31371      3.345       0.178       
0.31391      3.238       0.18        
0.31412      3.428       0.196       
0.31432      3.5         0.183       
0.31453      3.039       0.18        
0.31474      3.712       0.19        
0.31494      3.565       0.182       
0.31515      3.427       0.18        
0.31536      3.433       0.183       
0.31556      3.286       0.182       
0.31577      3.461       0.19        
0.31598      3.293       0.18        
0.31619      3.592       0.204       
0.31639      3.279       0.176       
0.3166       3.388       0.187       
0.31681      3.346       0.186       
0.31702      3.485       0.185       
0.31723      3.489       0.185       
0.31744      3.517       0.201       
0.31765      3.392       0.191       
0.31785      3.598       0.195       
0.31806      3.242       0.18        
0.31827      3.622       0.192       
0.31848      3.441       0.169       
0.31869      3.204       0.162       
0.3189       3.428       0.163       
0.31912      3.431       0.166       
0.31933      3.7         0.172       
0.31954      3.671       0.183       
0.31975      3.502       0.183       
0.31996      3.287       0.175       
0.32017      3.586       0.192       
0.32038      3.661       0.186       
0.3206       3.293       0.168       
0.32081      3.379       0.177       
0.32102      3.486       0.174       
0.32123      3.374       0.17        
0.32145      3.476       0.173       
0.32166      3.265       0.151       
0.32187      3.437       0.159       
0.32209      3.728       0.172       
0.3223       3.584       0.165       
0.32251      3.568       0.17        
0.32273      3.153       0.157       
0.32294      3.28        0.165       
0.32316      3.477       0.169       
0.32337      3.569       0.162       
0.32359      3.45        0.159       
0.3238       3.694       0.169       
0.32402      3.457       0.158       
0.32423      3.548       0.162       
0.32445      3.769       0.166       
0.32466      3.365       0.176       
0.32488      3.178       0.158       
0.3251       3.775       0.185       
0.32531      3.722       0.19        
0.32553      3.496       0.174       
0.32575      3.298       0.163       
0.32597      3.326       0.156       
0.32618      3.312       0.154       
0.3264       3.483       0.16        
0.32662      3.365       0.158       
0.32684      3.57        0.168       
0.32706      3.591       0.169       
0.32727      3.181       0.158       
0.32749      3.373       0.17        
0.32771      3.521       0.18        
0.32793      3.678       0.179       
0.32815      3.361       0.172       
0.32837      3.413       0.163       
0.32859      3.643       0.176       
0.32881      3.759       0.173       
0.32903      3.787       0.179       
0.32925      3.247       0.161       
0.32947      3.276       0.158       
0.3297       3.296       0.157       
0.32992      3.485       0.165       
0.33014      3.551       0.158       
0.33036      3.654       0.159       
0.33058      3.567       0.162       
0.3308       3.569       0.161       
0.33103      3.424       0.151       
0.33125      3.507       0.152       
0.33147      3.549       0.145       
0.3317       3.664       0.156       
0.33192      3.388       0.149       
0.33214      3.25        0.137       
0.33237      3.459       0.147       
0.33259      3.582       0.156       
0.33281      3.654       0.159       
0.33304      3.984       0.178       
0.33326      3.603       0.163       
0.33349      3.718       0.162       
0.33371      3.369       0.155       
0.33394      3.533       0.165       
0.33417      3.551       0.167       
0.33439      3.45        0.166       
0.33462      3.544       0.167       
0.33484      3.668       0.174       
0.33507      3.348       0.164       
0.3353       3.259       0.159       
0.33552      3.884       0.179       
0.33575      3.719       0.174       
0.33598      3.484       0.166       
0.33621      3.58        0.175       
0.33643      3.859       0.181       
0.33666      3.756       0.177       
0.33689      3.375       0.163       
0.33712      3.595       0.173       
0.33735      3.266       0.161       
0.33758      3.581       0.172       
0.33781      3.708       0.167       
0.33804      3.324       0.16        
0.33827      3.343       0.156       
0.3385       3.72        0.179       
0.33873      3.512       0.177       
0.33896      3.896       0.182       
0.33919      3.828       0.188       
0.33942      3.698       0.181       
0.33965      3.453       0.164       
0.33988      3.62        0.158       
0.34011      3.688       0.159       
0.34035      3.641       0.159       
0.34058      4.013       0.174       
0.34081      3.473       0.156       
0.34104      3.447       0.159       
0.34128      3.308       0.15        
0.34151      3.904       0.164       
0.34174      3.66        0.157       
0.34198      3.64        0.156       
0.34221      3.534       0.143       
0.34244      3.612       0.147       
0.34268      3.813       0.149       
0.34291      3.696       0.142       
0.34315      3.589       0.138       
0.34338      3.669       0.147       
0.34362      3.652       0.156       
0.34385      3.744       0.165       
0.34409      3.617       0.156       
0.34433      3.427       0.154       
0.34456      3.6         0.154       
0.3448       3.737       0.153       
0.34503      3.874       0.16        
0.34527      3.811       0.157       
0.34551      3.663       0.156       
0.34575      3.457       0.149       
0.34598      3.417       0.146       
0.34622      3.737       0.161       
0.34646      3.811       0.156       
0.3467       3.916       0.165       
0.34694      3.754       0.158       
0.34718      3.609       0.151       
0.34742      3.546       0.152       
0.34766      3.815       0.164       
0.34789      3.882       0.172       
0.34813      3.591       0.156       
0.34837      4.011       0.181       
0.34862      3.609       0.168       
0.34886      3.807       0.172       
0.3491       3.987       0.178       
0.34934      3.435       0.156       
0.34958      4.04        0.166       
0.34982      3.7         0.147       
0.35006      4.025       0.149       
0.35031      3.79        0.143       
0.35055      3.779       0.146       
0.35079      4.017       0.16        
0.35103      3.65        0.149       
0.35128      3.656       0.143       
0.35152      3.85        0.152       
0.35176      3.799       0.144       
0.35201      4.          0.148       
0.35225      3.73        0.145       
0.3525       3.924       0.157       
0.35274      3.841       0.156       
0.35299      3.894       0.152       
0.35323      3.961       0.153       
0.35348      4.204       0.158       
0.35372      3.888       0.152       
0.35397      3.735       0.15        
0.35422      3.953       0.162       
0.35446      3.82        0.164       
0.35471      4.025       0.166       
0.35496      3.964       0.16        
0.3552       3.996       0.158       
0.35545      3.991       0.153       
0.3557       3.928       0.148       
0.35595      3.786       0.146       
0.35619      3.84        0.154       
0.35644      3.847       0.159       
0.35669      3.549       0.152       
0.35694      3.744       0.153       
0.35719      3.829       0.156       
0.35744      3.901       0.148       
0.35769      3.919       0.152       
0.35794      3.956       0.148       
0.35819      3.957       0.148       
0.35844      3.807       0.144       
0.35869      4.073       0.154       
0.35894      4.178       0.15        
0.3592       3.914       0.144       
0.35945      3.934       0.15        
0.3597       4.02        0.146       
0.35995      3.971       0.145       
0.3602       4.126       0.157       
0.36046      4.025       0.154       
0.36071      3.973       0.16        
0.36096      4.03        0.16        
0.36122      4.239       0.159       
0.36147      4.151       0.162       
0.36172      4.118       0.158       
0.36198      3.923       0.153       
0.36223      4.16        0.162       
0.36249      4.042       0.156       
0.36274      3.952       0.153       
0.363        4.132       0.163       
0.36325      4.186       0.168       
0.36351      3.992       0.164       
0.36377      4.28        0.172       
0.36402      4.309       0.174       
0.36428      4.242       0.168       
0.36454      4.168       0.173       
0.3648       4.053       0.172       
0.36505      4.21        0.183       
0.36531      3.93        0.165       
0.36557      4.296       0.184       
0.36583      4.057       0.172       
0.36609      4.185       0.176       
0.36635      4.364       0.189       
0.3666       4.347       0.19        
0.36686      3.978       0.173       
0.36712      4.344       0.196       
0.36738      3.954       0.175       
0.36764      4.18        0.181       
0.36791      4.196       0.181       
0.36817      3.945       0.165       
0.36843      4.25        0.176       
0.36869      4.281       0.177       
0.36895      4.461       0.181       
0.36921      4.078       0.162       
0.36948      4.569       0.187       
0.36974      4.177       0.166       
0.37         4.278       0.169       
0.37026      4.455       0.168       
0.37053      4.266       0.161       
0.37079      4.469       0.166       
0.37106      4.276       0.159       
0.37132      4.156       0.154       
0.37158      4.153       0.157       
0.37185      4.568       0.169       
0.37211      4.373       0.165       
0.37238      4.194       0.16        
0.37265      4.388       0.165       
0.37291      4.296       0.157       
0.37318      4.263       0.159       
0.37344      4.138       0.147       
0.37371      4.529       0.161       
0.37398      4.223       0.158       
0.37425      4.176       0.15        
0.37451      4.421       0.162       
0.37478      4.428       0.167       
0.37505      4.58        0.169       
0.37532      4.581       0.167       
0.37559      4.657       0.177       
0.37586      4.745       0.174       
0.37613      4.625       0.178       
0.3764       4.556       0.177       
0.37667      4.481       0.166       
0.37694      4.379       0.16        
0.37721      4.615       0.166       
0.37748      4.73        0.165       
0.37775      4.453       0.155       
0.37802      4.613       0.169       
0.37829      4.774       0.174       
0.37856      4.684       0.181       
0.37884      4.911       0.188       
0.37911      4.491       0.169       
0.37938      4.668       0.181       
0.37966      4.55        0.177       
0.37993      4.674       0.183       
0.3802       4.634       0.175       
0.38048      5.179       0.188       
0.38075      4.503       0.156       
0.38103      4.751       0.168       
0.3813       5.215       0.19        
0.38158      4.925       0.18        
0.38185      5.062       0.184       
0.38213      4.738       0.17        
0.3824       4.771       0.173       
0.38268      4.932       0.182       
0.38296      5.25        0.188       
0.38324      4.768       0.166       
0.38351      5.148       0.182       
0.38379      4.641       0.157       
0.38407      4.991       0.178       
0.38435      4.803       0.168       
0.38463      5.176       0.19        
0.3849       5.036       0.184       
0.38518      5.114       0.19        
0.38546      5.132       0.197       
0.38574      5.169       0.201       
0.38602      5.289       0.209       
0.3863       5.2         0.199       
0.38658      5.141       0.205       
0.38687      5.555       0.232       
0.38715      5.125       0.208       
0.38743      5.291       0.217       
0.38771      5.099       0.195       
0.38799      5.143       0.197       
0.38828      5.451       0.203       
0.38856      5.527       0.21        
0.38884      5.278       0.204       
0.38913      5.253       0.214       
0.38941      5.357       0.213       
0.38969      4.764       0.179       
0.38998      5.335       0.207       
0.39026      5.55        0.214       
0.39055      5.586       0.22        
0.39083      5.458       0.213       
0.39112      5.235       0.199       
0.39141      5.32        0.204       
0.39169      6.036       0.263       
0.39198      5.698       0.223       
0.39227      5.792       0.238       
0.39255      5.822       0.24        
0.39284      5.939       0.249       
0.39313      5.583       0.222       
0.39342      5.697       0.247       
0.3937       5.945       0.258       
0.39399      5.706       0.24        
0.39428      5.904       0.259       
0.39457      5.749       0.24        
0.39486      6.165       0.265       
0.39515      6.666       0.295       
0.39544      5.998       0.246       
0.39573      6.159       0.258       
0.39603      6.473       0.286       
0.39632      6.265       0.282       
0.39661      6.104       0.269       
0.3969       6.758       0.312       
0.39719      6.195       0.265       
0.39749      6.131       0.245       
0.39778      5.932       0.24        
0.39807      6.15        0.258       
0.39837      6.835       0.326       
0.39866      6.028       0.252       
0.39895      6.408       0.296       
0.39925      6.1         0.269       
0.39954      6.655       0.34        
0.39984      6.612       0.327       
0.40013      7.854       0.468       
0.40043      7.365       0.389       
0.40073      6.321       0.273       
0.40102      7.276       0.356       
0.40132      7.793       0.414       
0.40162      6.862       0.318       
0.40192      6.656       0.295       
0.40221      7.023       0.349       
0.40251      6.745       0.312       
0.40281      7.247       0.367       
0.40311      7.052       0.34        
0.40341      6.853       0.326       
0.40371      7.426       0.388       
0.40401      7.526       0.401       
0.40431      7.272       0.367       
0.40461      8.302       0.489       
0.40491      7.596       0.388       
0.40521      7.372       0.348       
0.40551      7.784       0.4         
0.40582      7.796       0.4         
0.40612      7.342       0.367       
0.40642      7.828       0.429       
0.40672      7.738       0.43        
0.40703      8.132       0.468       
0.40733      7.842       0.429       
0.40763      7.861       0.414       
0.40794      7.098       0.325       
0.40824      8.229       0.467       
0.40855      8.213       0.467       
0.40885      7.913       0.414       
0.40916      8.014       0.429       
0.40947      8.242       0.467       
0.40977      8.295       0.489       
0.41008      7.886       0.448       
0.41039      8.255       0.515       
0.41069      8.96        0.63        
0.411        8.51        0.547       
0.41131      9.178       0.69        
0.41162      9.301       0.772       
0.41193      8.43        0.585       
0.41224      8.229       0.548       
0.41255      7.968       0.516       
0.41286      8.093       0.516       
0.41317      7.963       0.49        
0.41348      8.486       0.585       
0.41379      8.074       0.489       
0.4141       8.474       0.547       
0.41441      9.534       0.772       
0.41472      8.397       0.548       
0.41503      7.675       0.448       
0.41535      7.915       0.49        
0.41566      8.226       0.548       
0.41597      10.185      1.09        
0.41629      8.8         0.691       
0.4166       8.581       0.631       
0.41692      9.322       0.772       
0.41723      10.522      1.09        
0.41755      8.745       0.631       
0.41786      10.437      1.09        
0.41818      10.451      1.09        
0.41849      10.344      1.09        
0.41881      8.43        0.585       
0.41913      8.922       0.691       
0.41945      8.316       0.548       
0.41976      9.827       0.89        
0.42008      10.41       1.09        
0.4204       10.58       1.09        
0.42072      9.397       0.772       
0.42104      9.864       0.89        
0.42136      8.768       0.631       
0.42168      8.153       0.516       
0.42232      9.363       0.772       
0.42296      9.051       0.69        
0.42328      8.679       0.631       
0.4236       9.737       0.89        
0.42393      9.08        0.69        
0.42425      8.746       0.631       
0.42457      9.31        0.772       
0.4249       9.398       0.772       
0.42522      8.57        0.584       
0.42554      9.045       0.69        
0.42587      10.536      1.09        
0.42619      9.491       0.772       
0.42652      9.961       0.89        
0.42684      10.642      1.09        
0.42717      10.521      1.09        
0.4275       9.384       0.772       
0.42815      10.281      1.09        
0.42848      8.434       0.585       
0.42881      9.763       0.89        
0.42914      8.764       0.631       
0.42946      9.902       0.89        
0.42979      10.626      1.09        
0.43012      10.383      1.09        
0.43045      10.257      1.09        
0.43078      9.222       0.772       
0.43111      8.449       0.631       
0.43144      8.644       0.691       
0.43178      8.442       0.631       
0.43211      11.22       1.541       
0.43244      9.014       0.772       
0.43277      9.316       0.891       
0.43311      8.839       0.773       
0.43344      10.108      1.09        
0.43377      8.023       0.548       
0.43411      9.513       0.891       
0.43444      8.95        0.691       
0.43478      10.307      1.09        
0.43511      8.965       0.691       
0.43545      9.729       0.89        
0.43578      10.479      1.09        
0.43612      8.909       0.63        
0.43646      8.839       0.63        
0.43679      9.505       0.772       
0.43713      9.19        0.69        
0.43747      9.24        0.69        
0.43781      8.71        0.584       
0.43815      10.043      0.89        
0.43849      10.064      0.89        
0.43883      10.12       0.89        
0.43917      9.63        0.772       
0.43951      11.724      1.541       
0.43985      9.598       0.772       
0.44019      8.955       0.63        
0.44053      8.755       0.584       
0.44087      9.679       0.772       
0.44121      9.566       0.772       
0.44156      10.022      0.89        
0.4419       8.898       0.63        
0.44224      10.579      1.09        
0.44259      10.673      1.09        
0.44293      10.022      0.89        
0.44328      10.641      1.09        
0.44362      9.55        0.772       
0.44397      9.177       0.69        
0.44431      9.614       0.772       
0.44466      10.721      1.09        
0.44501      9.068       0.63        
0.44535      9.808       0.771       
0.4457       11.008      1.09        
0.4464       11.999      1.541       
0.44675      9.227       0.63        
0.4471       9.221       0.63        
0.44745      9.8         0.771       
0.4478       10.385      0.89        
0.44815      9.566       0.69        
0.4485       9.902       0.771       
0.44885      10.022      0.771       
0.4492       12.199      1.54        
0.44955      9.535       0.63        
0.4499       10.246      0.771       
0.45026      9.284       0.584       
0.45061      9.052       0.547       
0.45096      9.108       0.584       
0.45132      9.351       0.63        
0.45167      8.77        0.515       
0.45203      10.371      0.89        
0.45238      9.971       0.771       
0.45274      8.511       0.467       
0.4531       10.522      0.89        
0.45345      8.76        0.515       
0.45381      8.874       0.547       
0.45417      9.952       0.771       
0.45453      9.33        0.63        
0.45488      9.29        0.63        
0.45524      9.621       0.69        
0.4556       9.951       0.771       
0.45596      8.464       0.467       
0.45632      8.894       0.514       
0.45668      10.595      0.889       
0.45704      8.783       0.488       
0.4574       8.558       0.467       
0.45777      7.688       0.355       
0.45813      9.756       0.69        
0.45849      9.253       0.584       
0.45885      8.427       0.447       
0.45922      8.676       0.467       
0.45958      8.934       0.514       
0.45995      8.233       0.413       
0.46031      8.276       0.413       
0.46068      9.149       0.547       
0.46104      8.42        0.428       
0.46141      7.981       0.377       
0.46177      8.348       0.413       
0.46214      8.015       0.355       
0.46251      7.943       0.347       
0.46288      8.009       0.355       
0.46324      8.105       0.365       
0.46361      7.767       0.338       
0.46398      7.832       0.347       
0.46435      7.764       0.338       
0.46472      7.807       0.347       
0.46509      7.312       0.294       
0.46546      8.233       0.387       
0.46584      7.397       0.304       
0.46621      7.696       0.338       
0.46658      7.954       0.366       
0.46695      7.534       0.317       
0.46733      6.893       0.26        
0.4677       7.336       0.289       
0.46807      7.029       0.266       
0.46845      7.126       0.263       
0.46882      6.95        0.26        
0.4692       6.95        0.252       
0.46957      6.743       0.244       
0.46995      6.95        0.26        
0.47033      6.772       0.243       
0.4707       6.674       0.237       
0.47108      6.786       0.243       
0.47146      6.561       0.233       
0.47184      6.583       0.237       
0.47222      6.436       0.225       
0.4726       6.183       0.204       
0.47298      6.712       0.237       
0.47336      6.474       0.21        
0.47374      6.468       0.213       
0.47412      6.484       0.213       
0.4745       6.718       0.236       
0.47488      6.087       0.19        
0.47527      6.027       0.189       
0.47565      6.024       0.189       
0.47603      6.171       0.193       
0.47642      6.144       0.187       
0.4768       5.986       0.172       
0.47719      5.995       0.172       
0.47757      5.826       0.159       
0.47796      5.881       0.169       
0.47835      6.106       0.181       
0.47873      5.624       0.154       
0.47912      5.724       0.158       
0.47951      5.788       0.159       
0.4799       6.003       0.17        
0.48029      5.832       0.159       
0.48068      5.736       0.16        
0.48106      5.921       0.17        
0.48146      5.588       0.157       
0.48185      5.671       0.164       
0.48224      5.404       0.151       
0.48263      5.72        0.163       
0.48302      5.517       0.151       
0.48341      5.428       0.148       
0.48381      5.834       0.166       
0.4842       5.364       0.145       
0.48459      5.642       0.154       
0.48499      5.521       0.144       
0.48538      5.204       0.132       
0.48578      5.404       0.14        
0.48618      5.279       0.135       
0.48657      5.255       0.131       
0.48697      5.154       0.128       
0.48737      5.199       0.132       
0.48776      5.03        0.126       
0.48816      5.098       0.13        
0.48856      5.188       0.134       
0.48896      5.281       0.139       
0.48936      4.995       0.127       
0.48976      5.025       0.128       
0.49016      4.699       0.115       
0.49056      5.056       0.122       
0.49097      4.9         0.119       
0.49137      4.944       0.119       
0.49177      5.052       0.125       
0.49217      4.923       0.127       
0.49258      4.995       0.128       
0.49298      4.891       0.127       
0.49339      5.085       0.141       
0.49379      4.622       0.121       
0.4942       4.752       0.124       
0.4946       4.842       0.126       
0.49501      4.635       0.115       
0.49542      4.767       0.116       
0.49583      4.698       0.112       
0.49624      4.553       0.106       
0.49664      4.565       0.102       
0.49705      4.603       0.105       
0.49746      4.504       0.102       
0.49787      4.583       0.107       
0.49828      4.601       0.112       
0.4987       4.478       0.109       
0.49911      4.507       0.109       
0.49952      4.418       0.103       
0.49993      4.559       0.104       
0.50035      4.423       0.101       
0.50076      4.375       0.099       
0.50118      4.464       0.103       
0.50159      4.458       0.103       
0.50201      4.443       0.104       
0.50242      4.48        0.106       
0.50284      4.687       0.11        
0.50326      4.366       0.101       
0.50367      4.376       0.103       
0.50409      4.256       0.102       
0.50451      4.479       0.107       
0.50493      4.374       0.103       
0.50535      4.098       0.094       
0.50577      4.278       0.095       
0.50619      4.236       0.092       
0.50661      4.339       0.096       
0.50703      4.059       0.089       
0.50745      4.409       0.096       
0.50788      4.113       0.091       
0.5083       4.323       0.095       
0.50872      4.124       0.089       
0.50915      4.133       0.091       
0.50957      4.041       0.088       
0.51         4.124       0.087       
0.51043      4.192       0.089       
0.51085      4.227       0.09        
0.51128      3.921       0.084       
0.51171      4.1         0.087       
0.51213      3.991       0.083       
0.51256      4.007       0.084       
0.51299      4.072       0.086       
0.51342      4.          0.086       
0.51385      3.979       0.086       
0.51428      3.834       0.081       
0.51472      3.881       0.08        
0.51515      4.118       0.086       
0.51558      4.094       0.084       
0.51601      4.137       0.086       
0.51645      3.895       0.083       
0.51688      4.003       0.084       
0.51731      3.878       0.081       
0.51775      3.858       0.08        
0.51819      3.923       0.081       
0.51862      3.991       0.083       
0.51906      4.035       0.086       
0.5195       4.039       0.086       
0.51993      3.802       0.08        
0.52037      3.953       0.081       
0.52081      3.738       0.079       
0.52125      3.815       0.08        
0.52169      3.782       0.079       
0.52213      3.749       0.081       
0.52257      3.868       0.087       
0.52302      3.812       0.086       
0.52346      3.836       0.087       
0.5239       3.788       0.086       
0.52434      3.68        0.081       
0.52479      3.994       0.088       
0.52523      3.981       0.086       
0.52568      3.796       0.084       
0.52612      3.667       0.083       
0.52657      3.943       0.088       
0.52702      3.836       0.087       
0.52747      3.843       0.09        
0.52791      3.748       0.09        
0.52836      3.72        0.089       
0.52881      3.711       0.086       
0.52926      3.679       0.084       
0.52971      3.719       0.086       
0.53016      3.67        0.086       
0.53061      3.707       0.089       
0.53107      3.766       0.095       
0.53152      3.568       0.107       
0.53197      3.506       0.121       
0.53243      3.614       0.123       
0.53288      3.54        0.105       
0.53334      3.59        0.093       
0.53379      3.705       0.084       
0.53425      3.63        0.078       
0.5347       3.61        0.076       
0.53516      3.612       0.074       
0.53562      3.616       0.076       
0.53608      3.736       0.077       
0.53654      3.559       0.074       
0.537        3.641       0.074       
0.53746      3.575       0.074       
0.53792      3.556       0.074       
0.53838      3.571       0.074       
0.53884      3.503       0.074       
0.5393       3.572       0.076       
0.53977      3.514       0.074       
0.54023      3.559       0.073       
0.5407       3.522       0.074       
0.54116      3.697       0.077       
0.54163      3.551       0.073       
0.54209      3.527       0.071       
0.54256      3.507       0.07        
0.54303      3.627       0.069       
0.54349      3.419       0.068       
0.54396      3.446       0.068       
0.54443      3.532       0.071       
0.5449       3.454       0.07        
0.54537      3.438       0.07        
0.54584      3.348       0.069       
0.54632      3.543       0.074       
0.54679      3.452       0.072       
0.54726      3.441       0.07        
0.54773      3.399       0.072       
0.54821      3.457       0.072       
0.54868      3.406       0.072       
0.54916      3.472       0.075       
0.54964      3.416       0.075       
0.55011      3.341       0.072       
0.55059      3.333       0.072       
0.55107      3.454       0.075       
0.55155      3.451       0.078       
0.55202      3.356       0.079       
0.5525       3.483       0.081       
0.55298      3.346       0.077       
0.55347      3.391       0.077       
0.55395      3.483       0.078       
0.55443      3.517       0.081       
0.55491      3.389       0.081       
0.5554       3.375       0.082       
0.55588      3.399       0.087       
0.55637      3.348       0.089       
0.55685      3.426       0.092       
0.55734      3.346       0.092       
0.55782      3.329       0.096       
0.55831      3.461       0.105       
0.5588       3.267       0.108       
0.55929      3.304       0.112       
0.55978      3.191       0.111       
0.56027      3.56        0.13        
0.56076      3.195       0.134       
0.56125      3.572       0.162       
0.56174      3.063       0.161       
0.56223      3.309       0.178       
0.56273      3.052       0.192       
0.56322      3.193       0.214       
0.56371      3.207       0.224       
0.56421      3.534       0.252       
0.5647       2.814       0.239       
0.5652       2.985       0.258       
0.5657       3.439       0.276       
0.5662       3.458       0.265       
0.56669      2.78        0.222       
0.56719      3.179       0.214       
0.56769      3.188       0.2         
0.56819      3.488       0.2         
0.56869      3.436       0.185       
0.5692       3.243       0.176       
0.5697       3.058       0.15        
0.5702       2.967       0.144       
0.5707       3.073       0.136       
0.57121      3.132       0.13        
0.57171      3.244       0.126       
0.57222      3.165       0.12        
0.57273      3.214       0.112       
0.57323      3.186       0.107       
0.57374      3.163       0.102       
0.57425      3.133       0.097       
0.57476      3.152       0.095       
0.57527      3.219       0.092       
0.57578      3.099       0.089       
0.57629      3.074       0.085       
0.5768       3.196       0.085       
0.57731      3.198       0.086       
0.57783      3.113       0.083       
0.57834      3.269       0.081       
0.57886      3.224       0.076       
0.57937      3.217       0.072       
0.57989      3.292       0.072       
0.5804       3.229       0.071       
0.58092      3.22        0.071       
0.58144      3.198       0.071       
0.58196      3.176       0.069       
0.58248      3.18        0.067       
0.583        3.218       0.065       
0.58352      3.16        0.064       
0.58404      3.234       0.065       
0.58456      3.261       0.065       
0.58508      3.28        0.067       
0.58561      3.203       0.067       
0.58613      3.167       0.07        
0.58666      3.102       0.07        
0.58718      3.043       0.065       
0.58771      3.22        0.061       
0.58823      3.061       0.054       
0.58876      3.119       0.052       
0.58929      3.115       0.054       
0.58982      3.064       0.058       
0.59035      3.182       0.066       
0.59088      3.116       0.07        
0.59141      3.106       0.067       
0.59194      3.206       0.067       
0.59248      3.112       0.064       
0.59301      3.103       0.064       
0.59354      3.07        0.061       
0.59408      3.174       0.062       
0.59462      3.041       0.059       
0.59515      3.141       0.061       
0.59569      3.101       0.059       
0.59623      3.06        0.059       
0.59676      3.061       0.059       
0.5973       3.112       0.061       
0.59784      3.144       0.063       
0.59838      3.144       0.063       
0.59893      2.941       0.06        
0.59947      3.054       0.058       
0.60001      3.012       0.056       
0.60056      3.074       0.058       
0.6011       3.145       0.059       
0.60164      3.123       0.059       
0.60219      3.101       0.059       
0.60274      3.097       0.059       
0.60328      3.041       0.058       
0.60383      3.049       0.056       
0.60438      3.151       0.057       
0.60493      3.065       0.056       
0.60548      3.06        0.054       
0.60603      3.084       0.054       
0.60659      3.081       0.054       
0.60714      3.129       0.054       
0.60769      3.006       0.052       
0.60825      3.069       0.054       
0.6088       2.999       0.052       
0.60936      2.988       0.051       
0.60991      2.994       0.052       
0.61047      3.027       0.054       
0.61103      3.088       0.054       
0.61159      3.026       0.054       
0.61215      2.992       0.052       
0.61271      3.02        0.052       
0.61327      2.965       0.052       
0.61383      3.116       0.054       
0.61439      2.969       0.054       
0.61495      2.855       0.053       
0.61552      2.985       0.056       
0.61608      2.974       0.054       
0.61665      3.026       0.056       
0.61722      3.082       0.057       
0.61778      3.022       0.056       
0.61835      3.086       0.056       
0.61892      2.993       0.056       
0.61949      2.96        0.058       
0.62006      2.972       0.058       
0.62063      2.951       0.057       
0.6212       2.999       0.056       
0.62178      2.987       0.056       
0.62235      2.885       0.054       
0.62292      2.97        0.054       
0.6235       2.929       0.053       
0.62408      2.989       0.052       
0.62465      2.808       0.052       
0.62523      2.897       0.053       
0.62581      2.865       0.053       
0.62639      2.975       0.054       
0.62697      2.867       0.051       
0.62755      2.948       0.052       
0.62813      2.949       0.052       
0.62871      2.989       0.052       
0.62929      2.995       0.052       
0.62988      2.975       0.053       
0.63046      2.905       0.052       
0.63105      2.999       0.052       
0.63164      2.918       0.051       
0.63222      2.96        0.051       
0.63281      2.967       0.052       
0.6334       2.941       0.051       
0.63399      3.065       0.052       
0.63458      2.951       0.051       
0.63517      2.889       0.05        
0.63576      2.951       0.051       
0.63636      2.903       0.05        
0.63695      2.898       0.05        
0.63755      2.908       0.05        
0.63814      3.007       0.052       
0.63874      2.952       0.052       
0.63933      2.902       0.051       
0.63993      2.951       0.051       
0.64053      2.961       0.051       
0.64113      2.994       0.051       
0.64173      3.029       0.05        
0.64233      2.843       0.05        
0.64294      2.925       0.05        
0.64354      2.896       0.051       
0.64414      2.942       0.05        
0.64475      2.963       0.051       
0.64535      2.858       0.05        
0.64596      2.897       0.049       
0.64657      2.864       0.05        
0.64718      2.893       0.05        
0.64778      2.904       0.051       
0.64839      2.884       0.053       
0.649        2.928       0.053       
0.64962      2.904       0.053       
0.65023      2.888       0.051       
0.65084      2.925       0.051       
0.65146      2.858       0.049       
0.65207      2.898       0.049       
0.65269      2.905       0.048       
0.6533       2.884       0.048       
0.65392      2.896       0.05        
0.65454      2.831       0.05        
0.65516      2.89        0.051       
0.65578      2.83        0.05        
0.6564       2.829       0.048       
0.65702      2.905       0.048       
0.65765      2.968       0.049       
0.65827      2.935       0.048       
0.6589       2.911       0.048       
0.65952      2.891       0.048       
0.66015      2.788       0.046       
0.66078      2.874       0.048       
0.6614       2.813       0.046       
0.66203      2.868       0.046       
0.66266      2.867       0.046       
0.6633       2.873       0.046       
0.66393      2.904       0.045       
0.66456      2.912       0.045       
0.66519      2.89        0.045       
0.66583      2.842       0.044       
0.66646      2.842       0.044       
0.6671       2.825       0.044       
0.66774      2.886       0.044       
0.66838      2.796       0.044       
0.66902      2.879       0.044       
0.66966      2.924       0.044       
0.6703       2.863       0.043       
0.67094      2.761       0.043       
0.67158      2.82        0.043       
0.67223      2.882       0.042       
0.67287      2.949       0.043       
0.67352      2.812       0.043       
0.67416      2.843       0.042       
0.67481      2.948       0.042       
0.67546      2.873       0.041       
0.67611      2.866       0.041       
0.67676      2.796       0.041       
0.67741      2.918       0.042       
0.67806      2.817       0.042       
0.67872      2.83        0.043       
0.67937      2.817       0.042       
0.68003      2.782       0.041       
0.68068      2.847       0.041       
0.68134      2.827       0.041       
0.682        2.831       0.041       
0.68266      2.865       0.041       
0.68332      2.787       0.041       
0.68398      2.828       0.041       
0.68464      2.798       0.041       
0.6853       2.796       0.041       
0.68596      2.842       0.042       
0.68663      2.921       0.042       
0.68729      2.771       0.041       
0.68796      2.769       0.041       
0.68863      2.756       0.039       
0.6893       2.817       0.039       
0.68997      2.829       0.039       
0.69064      2.775       0.039       
0.69131      2.807       0.039       
0.69198      2.873       0.041       
0.69265      2.816       0.039       
0.69333      2.772       0.037       
0.694        2.789       0.037       
0.69468      2.794       0.037       
0.69536      2.787       0.037       
0.69604      2.835       0.039       
0.69672      2.799       0.039       
0.6974       2.755       0.037       
0.69808      2.773       0.037       
0.69876      2.77        0.037       
0.69944      2.87        0.039       
0.70013      2.776       0.039       
0.70081      2.792       0.039       
0.7015       2.814       0.039       
0.70219      2.806       0.039       
0.70288      2.768       0.039       
0.70357      2.77        0.037       
0.70426      2.783       0.039       
0.70495      2.761       0.039       
0.70564      2.801       0.041       
0.70633      2.785       0.041       
0.70703      2.771       0.039       
0.70772      2.802       0.039       
0.70842      2.807       0.039       
0.70912      2.769       0.039       
0.70982      2.78        0.037       
0.71052      2.813       0.037       
0.71122      2.719       0.037       
0.71192      2.785       0.037       
0.71262      2.694       0.037       
0.71333      2.749       0.037       
0.71403      2.79        0.037       
0.71474      2.754       0.037       
0.71544      2.739       0.037       
0.71615      2.669       0.037       
0.71686      2.78        0.039       
0.71757      2.733       0.037       
0.71828      2.808       0.037       
0.71899      2.711       0.037       
0.71971      2.746       0.037       
0.72042      2.763       0.037       
0.72114      2.699       0.036       
0.72185      2.796       0.037       
0.72257      2.766       0.037       
0.72329      2.766       0.037       
0.72401      2.709       0.036       
0.72473      2.759       0.037       
0.72545      2.794       0.037       
0.72617      2.716       0.037       
0.7269       2.688       0.036       
0.72762      2.693       0.036       
0.72835      2.764       0.037       
0.72908      2.761       0.037       
0.72981      2.746       0.035       
0.73053      2.721       0.035       
0.73127      2.74        0.035       
0.732        2.708       0.035       
0.73273      2.753       0.035       
0.73346      2.751       0.036       
0.7342       2.749       0.036       
0.73493      2.764       0.036       
0.73567      2.743       0.036       
0.73641      2.717       0.035       
0.73715      2.702       0.035       
0.73789      2.677       0.035       
0.73863      2.748       0.035       
0.73937      2.748       0.035       
0.74012      2.696       0.035       
0.74086      2.737       0.035       
0.74161      2.765       0.035       
0.74236      2.784       0.035       
0.7431       2.797       0.037       
0.74385      2.752       0.037       
0.74461      2.668       0.036       
0.74536      2.741       0.036       
0.74611      2.725       0.036       
0.74686      2.716       0.037       
0.74762      2.663       0.036       
0.74838      2.733       0.035       
0.74913      2.703       0.034       
0.74989      2.763       0.035       
0.75065      2.653       0.034       
0.75141      2.694       0.034       
0.75217      2.681       0.034       
0.75294      2.665       0.034       
0.7537       2.69        0.034       
0.75447      2.717       0.035       
0.75523      2.662       0.035       
0.756        2.737       0.036       
0.75677      2.677       0.036       
0.75754      2.758       0.035       
0.75831      2.688       0.034       
0.75909      2.738       0.034       
0.75986      2.645       0.034       
0.76063      2.718       0.034       
0.76141      2.678       0.034       
0.76219      2.713       0.035       
0.76297      2.764       0.035       
0.76375      2.732       0.034       
0.76453      2.722       0.034       
0.76531      2.727       0.034       
0.76609      2.702       0.034       
0.76688      2.724       0.034       
0.76766      2.75        0.034       
0.76845      2.681       0.034       
0.76924      2.719       0.035       
0.77003      2.673       0.036       
0.77082      2.67        0.035       
0.77161      2.66        0.034       
0.7724       2.682       0.034       
0.7732       2.726       0.034       
0.77399      2.755       0.034       
0.77479      2.607       0.034       
0.77559      2.739       0.034       
0.77639      2.625       0.034       
0.77719      2.661       0.034       
0.77799      2.646       0.034       
0.77879      2.679       0.034       
0.7796       2.704       0.034       
0.7804       2.712       0.035       
0.78121      2.712       0.035       
0.78202      2.702       0.035       
0.78283      2.665       0.036       
0.78364      2.692       0.037       
0.78445      2.739       0.037       
0.78526      2.725       0.037       
0.78608      2.723       0.039       
0.78689      2.757       0.039       
0.78771      2.688       0.039       
0.78853      2.701       0.041       
0.78934      2.66        0.039       
0.79017      2.667       0.039       
0.79099      2.777       0.041       
0.79181      2.672       0.039       
0.79263      2.729       0.041       
0.79346      2.72        0.041       
0.79429      2.763       0.042       
0.79512      2.73        0.044       
0.79595      2.721       0.044       
0.79678      2.695       0.046       
0.79761      2.755       0.048       
0.79844      2.744       0.048       
0.79928      2.707       0.05        
0.80011      2.704       0.052       
0.80095      2.663       0.052       
0.80179      2.699       0.055       
0.80263      2.686       0.057       
0.80347      2.749       0.06        
0.80431      2.608       0.061       
0.80516      2.825       0.066       
0.806        2.707       0.069       
0.80685      2.612       0.07        
0.8077       2.655       0.076       
0.80855      2.619       0.08        
0.8094       2.834       0.085       
0.81025      2.817       0.087       
0.8111       2.847       0.087       
0.81196      2.509       0.083       
0.81281      2.809       0.091       
0.81367      2.745       0.092       
0.81453      2.841       0.091       
0.81539      2.617       0.088       
0.81625      2.62        0.083       
0.81712      2.725       0.081       
0.81798      2.559       0.079       
0.81885      2.684       0.078       
0.81971      2.747       0.076       
0.82058      2.796       0.075       
0.82145      2.776       0.072       
0.82232      2.728       0.071       
0.82319      2.819       0.068       
0.82407      2.742       0.065       
0.82494      2.744       0.063       
0.82582      2.787       0.063       
0.8267       2.8         0.061       
0.82758      2.695       0.059       
0.82846      2.791       0.06        
0.82934      2.738       0.057       
0.83023      2.722       0.055       
0.83111      2.791       0.054       
0.832        2.715       0.053       
0.83289      2.81        0.052       
0.83377      2.817       0.051       
0.83467      2.808       0.051       
0.83556      2.752       0.05        
0.83645      2.783       0.049       
0.83735      2.669       0.048       
0.83824      2.785       0.048       
0.83914      2.688       0.046       
0.84004      2.841       0.045       
0.84094      2.768       0.045       
0.84184      2.894       0.045       
0.84275      2.736       0.045       
0.84365      2.785       0.049       
0.84456      2.764       0.049       
0.84547      2.824       0.047       
0.84638      2.799       0.044       
0.84729      2.756       0.042       
0.8482       2.809       0.042       
0.84912      2.797       0.043       
0.85003      2.861       0.043       
0.85095      2.815       0.042       
0.85187      2.807       0.041       
0.85279      2.885       0.04        
0.85371      2.818       0.04        
0.85463      2.858       0.04        
0.85556      2.81        0.039       
0.85648      2.793       0.039       
0.85741      2.935       0.04        
0.85834      2.889       0.039       
0.85927      2.838       0.039       
0.8602       2.81        0.037       
0.86114      2.86        0.039       
0.86207      2.862       0.037       
0.86301      2.925       0.038       
0.86395      2.878       0.037       
0.86489      2.869       0.037       
0.86583      2.927       0.038       
0.86677      2.898       0.037       
0.86771      2.879       0.037       
0.86866      2.927       0.037       
0.86961      2.959       0.037       
0.87056      2.884       0.037       
0.87151      2.912       0.037       
0.87246      2.924       0.037       
0.87341      2.958       0.038       
0.87437      2.965       0.038       
0.87532      2.988       0.038       
0.87628      2.904       0.037       
0.87724      2.998       0.037       
0.8782       2.993       0.037       
0.87917      2.922       0.037       
0.88013      2.962       0.037       
0.8811       3.05        0.036       
0.88207      3.1         0.037       
0.88304      3.068       0.037       
0.88401      3.111       0.037       
0.88498      3.083       0.037       
0.88595      3.078       0.036       
0.88693      3.094       0.036       
0.88791      3.101       0.036       
0.88889      3.186       0.036       
0.88987      3.147       0.036       
0.89085      3.115       0.036       
0.89183      3.151       0.036       
0.89282      3.203       0.036       
0.89381      3.211       0.036       
0.89479      3.209       0.034       
0.89579      3.25        0.034       
0.89678      3.167       0.034       
0.89777      3.243       0.036       
0.89877      3.249       0.036       
0.89976      3.277       0.036       
0.90076      3.3         0.036       
0.90176      3.258       0.034       
0.90277      3.31        0.035       
0.90377      3.313       0.035       
0.90477      3.346       0.036       
0.90578      3.384       0.037       
0.90679      3.357       0.041       
0.9078       3.396       0.049       
0.90881      3.505       0.062       
0.90983      3.457       0.069       
0.91084      3.654       0.07        
0.91186      3.537       0.062       
0.91288      3.493       0.055       
0.9139       3.589       0.053       
0.91492      3.549       0.052       
0.91595      3.532       0.05        
0.91697      3.686       0.05        
0.918        3.626       0.05        
0.91903      3.647       0.05        
0.92006      3.674       0.048       
0.92109      3.709       0.05        
0.92213      3.671       0.048       
0.92316      3.743       0.05        
0.9242       3.831       0.051       
0.92524      3.941       0.051       
0.92628      3.937       0.051       
0.92733      3.978       0.053       
0.92837      4.01        0.053       
0.92942      3.987       0.053       
0.93047      4.091       0.054       
0.93152      4.147       0.056       
0.93257      4.128       0.056       
0.93362      4.163       0.056       
0.93468      4.25        0.057       
0.93574      4.338       0.058       
0.9368       4.261       0.057       
0.93786      4.3         0.058       
0.93892      4.474       0.063       
0.93999      4.507       0.063       
0.94105      4.563       0.066       
0.94212      4.665       0.069       
0.94319      4.699       0.071       
0.94426      4.69        0.072       
0.94534      4.82        0.075       
0.94641      4.869       0.075       
0.94749      4.897       0.078       
0.94857      4.898       0.078       
0.94965      5.008       0.08        
0.95073      5.055       0.083       
0.95182      5.142       0.084       
0.9529       5.226       0.089       
0.95399      5.351       0.095       
0.95508      5.52        0.099       
0.95618      5.357       0.095       
0.95727      5.589       0.101       
0.95837      5.581       0.101       
0.95946      5.736       0.105       
0.96056      5.711       0.104       
0.96167      5.883       0.111       
0.96277      6.089       0.121       
0.96388      6.037       0.117       
0.96498      5.813       0.11        
0.96609      6.215       0.125       
0.9672       6.278       0.128       
0.96832      6.177       0.125       
0.96943      6.673       0.145       
0.97055      6.583       0.145       
0.97167      6.698       0.146       
0.97279      6.464       0.134       
0.97391      6.824       0.152       
0.97504      6.807       0.151       
0.97616      7.117       0.166       
0.97729      7.018       0.16        
0.97842      7.238       0.174       
0.97956      7.089       0.166       
0.98069      7.59        0.188       
0.98183      7.147       0.161       
0.98297      7.541       0.18        
0.98411      7.322       0.168       
0.98525      7.47        0.174       
0.98639      7.82        0.197       
0.98754      7.682       0.186       
0.98869      7.752       0.189       
0.98984      8.084       0.21        
0.99099      8.247       0.223       
0.99215      8.055       0.207       
0.9933       7.813       0.189       
0.99446      7.698       0.183       
0.99562      7.959       0.198       
0.99679      8.158       0.207       
0.99795      7.547       0.169       
0.99912      7.999       0.196       
1.00029      7.744       0.18        
1.00146      8.101       0.201       
1.00263      7.799       0.187       
1.00381      7.983       0.192       
1.00498      7.654       0.173       
1.00616      7.961       0.187       
1.00734      7.964       0.186       
1.00853      7.582       0.163       
1.00971      7.926       0.181       
1.0109       7.52        0.158       
1.01209      7.587       0.16        
1.01328      7.615       0.161       
1.01447      7.332       0.151       
1.01567      7.399       0.155       
1.01687      7.312       0.152       
1.01807      7.204       0.144       
1.01927      7.118       0.137       
1.02048      6.972       0.129       
1.02168      6.938       0.124       
1.02289      6.965       0.127       
1.0241       7.006       0.129       
1.02531      6.654       0.115       
1.02653      6.672       0.114       
1.02775      6.665       0.111       
1.02897      6.57        0.106       
1.03019      6.405       0.102       
1.03141      6.363       0.098       
1.03264      6.421       0.1         
1.03387      6.227       0.094       
1.0351       6.269       0.095       
1.03633      6.287       0.095       
1.03756      6.091       0.091       
1.0388       5.84        0.088       
1.04004      5.855       0.096       
1.04128      5.776       0.101       
1.04253      5.698       0.096       
1.04377      5.428       0.08        
1.04502      5.589       0.077       
1.04627      5.5         0.072       
1.04752      5.277       0.068       
1.04878      5.254       0.066       
1.05004      5.267       0.065       
1.05129      5.126       0.063       
1.05256      5.024       0.061       
1.05382      5.038       0.061       
1.05509      4.989       0.059       
1.05636      4.888       0.057       
1.05763      4.854       0.056       
1.0589       4.759       0.056       
1.06017      4.875       0.058       
1.06145      4.811       0.056       
1.06273      4.609       0.051       
1.06401      4.649       0.051       
1.0653       4.505       0.05        
1.06659      4.461       0.048       
1.06788      4.536       0.048       
1.06917      4.371       0.045       
1.07046      4.327       0.045       
1.07176      4.346       0.045       
1.07306      4.326       0.044       
1.07436      4.247       0.044       
1.07566      4.251       0.044       
1.07697      4.206       0.042       
1.07828      4.098       0.041       
1.07959      4.107       0.041       
1.0809       4.097       0.041       
1.08221      4.049       0.041       
1.08353      3.976       0.039       
1.08485      3.889       0.039       
1.08617      3.875       0.039       
1.0875       3.878       0.039       
1.08883      3.816       0.038       
1.09016      3.823       0.038       
1.09149      3.773       0.038       
1.09282      3.735       0.038       
1.09416      3.713       0.038       
1.0955       3.66        0.037       
1.09684      3.611       0.037       
1.09819      3.621       0.037       
1.09954      3.551       0.035       
1.10089      3.507       0.035       
1.10224      3.594       0.035       
1.10359      3.51        0.035       
1.10495      3.462       0.035       
1.10631      3.522       0.035       
1.10767      3.436       0.034       
1.10904      3.435       0.034       
1.1104       3.406       0.034       
1.11177      3.452       0.035       
1.11314      3.321       0.034       
1.11452      3.29        0.034       
1.1159       3.337       0.034       
1.11728      3.281       0.034       
1.11866      3.283       0.034       
1.12004      3.279       0.032       
1.12143      3.236       0.032       
1.12282      3.2         0.032       
1.12421      3.246       0.032       
1.12561      3.221       0.032       
1.12701      3.154       0.03        
1.12841      3.101       0.029       
1.12981      3.108       0.029       
1.13122      3.105       0.029       
1.13263      3.092       0.029       
1.13404      3.067       0.029       
1.13545      3.047       0.029       
1.13687      3.021       0.028       
1.13829      3.055       0.028       
1.13971      3.08        0.028       
1.14113      3.005       0.028       
1.14256      3.013       0.028       
1.14399      3.028       0.028       
1.14542      2.929       0.028       
1.14686      2.979       0.028       
1.14829      2.993       0.028       
1.14973      2.957       0.028       
1.15118      2.963       0.025       
1.15262      2.935       0.025       
1.15407      2.914       0.025       
1.15552      2.897       0.024       
1.15698      2.92        0.024       
1.15843      2.869       0.023       
1.15989      2.875       0.023       
1.16136      2.851       0.024       
1.16282      2.864       0.026       
1.16429      2.867       0.028       
1.16576      2.825       0.028       
1.16723      2.811       0.028       
1.16871      2.82        0.028       
1.17019      2.826       0.028       
1.17167      2.811       0.026       
1.17315      2.777       0.026       
1.17464      2.754       0.026       
1.17613      2.757       0.024       
1.17763      2.764       0.024       
1.17912      2.786       0.024       
1.18062      2.762       0.024       
1.18212      2.701       0.024       
1.18363      2.737       0.024       
1.18513      2.712       0.024       
1.18664      2.737       0.024       
1.18816      2.707       0.024       
1.18967      2.743       0.024       
1.19119      2.684       0.024       
1.19272      2.685       0.024       
1.19424      2.715       0.024       
1.19577      2.637       0.025       
1.1973       2.687       0.026       
1.19883      2.699       0.028       
1.20037      2.651       0.03        
1.20191      2.66        0.033       
1.20345      2.679       0.037       
1.205        2.63        0.035       
1.20655      2.648       0.034       
1.2081       2.652       0.033       
1.20965      2.694       0.033       
1.21121      2.721       0.031       
1.21277      2.624       0.03        
1.21433      2.626       0.03        
1.2159       2.636       0.03        
1.21747      2.667       0.03        
1.21904      2.696       0.03        
1.22062      2.674       0.028       
1.2222       2.665       0.028       
1.22378      2.672       0.028       
1.22536      2.676       0.026       
1.22695      2.687       0.026       
1.22854      2.656       0.026       
1.23014      2.698       0.026       
1.23173      2.657       0.026       
1.23333      2.636       0.025       
1.23494      2.685       0.024       
1.23655      2.665       0.024       
1.23815      2.634       0.023       
1.23977      2.689       0.023       
1.24138      2.72        0.023       
1.243        2.71        0.023       
1.24463      2.738       0.022       
1.24625      2.766       0.022       
1.24788      2.759       0.021       
1.24951      2.792       0.021       
1.25115      2.797       0.022       
1.25279      2.779       0.022       
1.25443      2.808       0.024       
1.25607      2.849       0.024       
1.25772      2.859       0.025       
1.25937      2.854       0.028       
1.26103      2.922       0.031       
1.26268      2.931       0.034       
1.26435      2.987       0.034       
1.26601      3.031       0.032       
1.26768      3.055       0.03        
1.26935      3.113       0.03        
1.27102      3.097       0.03        
1.2727       3.306       0.032       
1.27438      3.313       0.032       
1.27607      3.381       0.033       
1.27775      3.455       0.035       
1.27945      3.563       0.035       
1.28114      3.609       0.035       
1.28284      3.833       0.037       
1.28454      3.891       0.037       
1.28624      3.967       0.039       
1.28795      4.196       0.042       
1.28966      4.349       0.043       
1.29138      4.457       0.045       
1.2931       4.81        0.051       
1.29482      4.821       0.051       
1.29654      5.261       0.057       
1.29827      5.43        0.06        
1.3          5.589       0.063       
1.30174      5.774       0.067       
1.30348      6.101       0.075       
1.30522      6.367       0.083       
1.30697      6.469       0.084       
1.30871      6.508       0.086       
1.31047      6.663       0.09        
1.31222      6.744       0.092       
1.31398      6.673       0.09        
1.31575      6.451       0.084       
1.31752      6.362       0.081       
1.31929      6.198       0.076       
1.32106      5.915       0.07        
1.32284      5.793       0.067       
1.32462      5.528       0.061       
1.3264       5.372       0.058       
1.32819      5.071       0.052       
1.32999      4.946       0.051       
1.33178      4.787       0.049       
1.33358      4.522       0.045       
1.33538      4.373       0.042       
1.33719      4.197       0.04        
1.339        4.069       0.039       
1.34082      4.008       0.039       
1.34263      3.864       0.037       
1.34446      3.685       0.035       
1.34628      3.611       0.035       
1.34811      3.5         0.033       
1.34994      3.466       0.033       
1.35178      3.326       0.032       
1.35362      3.3         0.032       
1.35546      3.228       0.03        
1.35731      3.161       0.03        
1.35916      3.055       0.029       
1.36102      3.059       0.029       
1.36288      2.997       0.029       
1.36474      2.925       0.027       
1.36661      2.934       0.027       
1.36848      2.845       0.027       
1.37035      2.856       0.027       
1.37223      2.792       0.025       
1.37411      2.784       0.025       
1.376        2.721       0.025       
1.37789      2.726       0.026       
1.37978      2.692       0.026       
1.38168      2.604       0.026       
1.38358      2.608       0.024       
1.38549      2.589       0.024       
1.3874       2.589       0.024       
1.38931      2.565       0.024       
1.39123      2.52        0.024       
1.39315      2.496       0.024       
1.39508      2.484       0.024       
1.39701      2.476       0.024       
1.39894      2.515       0.024       
1.40088      2.443       0.025       
1.40282      2.438       0.026       
1.40476      2.437       0.028       
1.40671      2.457       0.032       
1.40867      2.411       0.034       
1.41062      2.354       0.032       
1.41259      2.374       0.03        
1.41455      2.317       0.028       
1.41652      2.407       0.026       
1.4185       2.345       0.026       
1.42047      2.33        0.025       
1.42246      2.285       0.025       
1.42444      2.281       0.025       
1.42643      2.268       0.025       
1.42843      2.263       0.025       
1.43043      2.252       0.025       
1.43243      2.262       0.025       
1.43444      2.25        0.025       
1.43645      2.196       0.023       
1.43847      2.172       0.023       
1.44049      2.23        0.023       
1.44251      2.241       0.023       
1.44454      2.179       0.023       
1.44657      2.182       0.023       
1.44861      2.177       0.023       
1.45065      2.184       0.023       
1.4527       2.143       0.023       
1.45475      2.214       0.023       
1.45681      2.2         0.023       
1.45886      2.164       0.023       
1.46093      2.19        0.023       
1.463        2.146       0.023       
1.46507      2.108       0.023       
1.46714      2.161       0.023       
1.46923      2.15        0.023       
1.47131      2.136       0.023       
1.4734       2.187       0.025       
1.4755       2.158       0.027       
1.47759      2.12        0.029       
1.4797       2.111       0.028       
1.48181      2.133       0.025       
1.48392      2.137       0.023       
1.48604      2.076       0.023       
1.48816      2.071       0.021       
1.49028      2.078       0.021       
1.49241      2.094       0.021       
1.49455      2.094       0.021       
1.49669      2.074       0.021       
1.49883      2.039       0.021       
1.50098      2.08        0.021       
1.50313      2.039       0.021       
1.50529      1.986       0.021       
1.50746      2.059       0.021       
1.50962      2.076       0.021       
1.5118       2.057       0.021       
1.51397      2.044       0.021       
1.51615      2.034       0.021       
1.51834      2.04        0.021       
1.52053      2.016       0.023       
1.52273      2.046       0.023       
1.52493      1.978       0.026       
1.52713      2.038       0.027       
1.52934      1.985       0.026       
1.53156      2.014       0.023       
1.53378      1.994       0.023       
1.536        2.032       0.022       
1.53823      2.004       0.022       
1.54047      1.993       0.021       
1.54271      1.991       0.021       
1.54495      1.977       0.021       
1.5472       1.976       0.021       
1.54945      1.97        0.021       
1.55171      1.987       0.021       
1.55398      1.925       0.02        
1.55624      1.961       0.02        
1.55852      1.953       0.021       
1.5608       1.949       0.021       
1.56308      1.989       0.021       
1.56537      1.926       0.021       
1.56766      1.916       0.021       
1.56996      1.951       0.021       
1.57227      1.927       0.021       
1.57458      1.947       0.022       
1.57689      1.942       0.023       
1.57921      1.891       0.023       
1.58153      1.935       0.023       
1.58386      1.883       0.022       
1.5862       1.904       0.023       
1.58854      1.948       0.026       
1.59088      1.934       0.029       
1.59323      1.942       0.032       
1.59559      1.828       0.035       
1.59795      1.897       0.035       
1.60031      1.924       0.031       
1.60269      1.906       0.03        
1.60506      1.885       0.029       
1.60744      1.849       0.029       
1.60983      1.846       0.028       
1.61222      1.862       0.029       
1.61462      1.912       0.029       
1.61702      1.902       0.029       
1.61943      1.849       0.029       
1.62185      1.928       0.031       
1.62427      1.87        0.032       
1.62669      1.929       0.032       
1.62912      1.933       0.036       
1.63156      1.944       0.038       
1.634        2.003       0.039       
1.63644      2.091       0.041       
1.63889      2.155       0.037       
1.64135      2.244       0.035       
1.64382      2.54        0.038       
1.64628      2.803       0.044       
1.64876      3.522       0.062       
1.65124      3.714       0.07        
1.65372      3.143       0.057       
1.65621      2.643       0.048       
1.65871      2.267       0.041       
1.66121      2.049       0.036       
1.66372      1.947       0.032       
1.66623      1.869       0.031       
1.66875      1.901       0.029       
1.67128      1.926       0.027       
1.67381      1.871       0.026       
1.67635      1.818       0.026       
1.67889      1.813       0.024       
1.68144      1.783       0.024       
1.68399      1.827       0.023       
1.68655      1.893       0.023       
1.68912      1.863       0.023       
1.69169      1.814       0.022       
1.69427      1.805       0.022       
1.69685      1.799       0.022       
1.69944      1.769       0.022       
1.70203      1.769       0.022       
1.70463      1.765       0.022       
1.70724      1.751       0.02        
1.70985      1.718       0.021       
1.71247      1.732       0.021       
1.7151       1.729       0.02        
1.71773      1.746       0.02        
1.72037      1.701       0.02        
1.72301      1.697       0.02        
1.72566      1.705       0.02        
1.72831      1.687       0.02        
1.73098      1.713       0.02        
1.73364      1.687       0.02        
1.73632      1.732       0.02        
1.739        1.709       0.02        
1.74168      1.674       0.02        
1.74438      1.691       0.02        
1.74708      1.7         0.02        
1.74978      1.689       0.02        
1.75249      1.686       0.02        
1.75521      1.668       0.02        
1.75793      1.666       0.02        
1.76066      1.66        0.02        
1.7634       1.665       0.02        
1.76614      1.662       0.02        
1.76889      1.681       0.02        
1.77165      1.638       0.02        
1.77441      1.654       0.02        
1.77718      1.634       0.02        
1.77996      1.61        0.02        
1.78274      1.614       0.02        
1.78553      1.626       0.02        
1.78832      1.611       0.02        
1.79112      1.609       0.02        
1.79393      1.616       0.02        
1.79675      1.624       0.02        
1.79957      1.607       0.02        
1.8024       1.561       0.021       
1.80523      1.578       0.021       
1.80807      1.581       0.02        
1.81092      1.622       0.02        
1.81378      1.607       0.02        
1.81664      1.578       0.021       
1.81951      1.619       0.021       
1.82238      1.786       0.022       
1.82526      1.935       0.025       
1.82815      2.356       0.03        
1.83105      2.996       0.039       
1.83395      3.588       0.049       
1.83686      3.474       0.053       
1.83978      3.04        0.054       
1.8427       2.595       0.053       
1.84563      2.419       0.057       
1.84857      2.143       0.057       
1.85151      2.101       0.057       
1.85447      2.062       0.055       
1.85742      2.007       0.052       
1.86039      2.008       0.047       
1.86336      1.981       0.045       
1.86634      2.004       0.041       
1.86933      2.006       0.039       
1.87233      2.07        0.037       
1.87533      2.071       0.036       
1.87834      2.128       0.035       
1.88135      2.22        0.033       
1.88438      2.292       0.033       
1.88741      2.439       0.033       
1.89044      2.561       0.032       
1.89349      2.693       0.032       
1.89654      2.869       0.032       
1.8996       2.995       0.033       
1.90267      3.102       0.033       
1.90574      3.076       0.034       
1.90883      3.083       0.035       
1.91192      2.965       0.037       
1.91501      2.775       0.039       
1.91812      2.595       0.039       
1.92123      2.45        0.04        
1.92435      2.35        0.039       
1.92748      2.226       0.037       
1.93062      2.066       0.034       
1.93376      2.006       0.032       
1.93691      1.964       0.032       
1.94007      1.857       0.031       
1.94323      1.872       0.03        
1.94641      1.84        0.03        
1.94959      1.833       0.029       
1.95278      1.82        0.029       
1.95598      1.779       0.031       
1.95918      1.69        0.031       
1.9624       1.701       0.031       
1.96562      1.679       0.033       
1.96885      1.681       0.035       
1.97208      1.672       0.035       
1.97533      1.664       0.033       
1.97858      1.693       0.031       
1.98184      1.644       0.029       
1.98511      1.64        0.028       
1.98839      1.617       0.026       
1.99167      1.576       0.026       
1.99497      1.634       0.026       
1.99827      1.591       0.024       
2.00158      1.621       0.024       
2.0049       1.576       0.024       
2.00822      1.489       0.024       
2.01156      1.538       0.024       
2.0149       1.515       0.023       
2.01825      1.524       0.022       
2.02161      1.571       0.022       
2.02498      1.54        0.022       
2.02836      1.513       0.022       
2.03174      1.538       0.022       
2.03514      1.502       0.021       
2.03854      1.488       0.021       
2.04195      1.497       0.021       
2.04537      1.481       0.022       
2.0488       1.472       0.022       
2.05223      1.491       0.022       
2.05568      1.438       0.022       
2.05913      1.487       0.022       
2.06259      1.442       0.022       
2.06607      1.482       0.021       
2.06955      1.468       0.021       
2.07303      1.471       0.021       
2.07653      1.439       0.022       
2.08004      1.462       0.024       
2.08355      1.407       0.026       
2.08708      1.434       0.029       
2.09061      1.434       0.03        
2.09416      1.436       0.03        
2.09771      1.408       0.03        
2.10127      1.403       0.03        
2.10484      1.373       0.03        
2.10842      1.437       0.031       
2.112        1.388       0.032       
2.1156       1.422       0.032       
2.11921      1.442       0.03        
2.12282      1.335       0.029       
2.12645      1.352       0.026       
2.13008      1.315       0.025       
2.13372      1.323       0.024       
2.13738      1.36        0.024       
2.14104      1.327       0.024       
2.14471      1.358       0.024       
2.14839      1.299       0.024       
2.15208      1.355       0.024       
2.15578      1.301       0.024       
2.15949      1.289       0.024       
2.16321      1.294       0.024       
2.16694      1.271       0.025       
2.17068      1.317       0.025       
2.17443      1.281       0.025       
2.17818      1.248       0.025       
2.18195      1.259       0.024       
2.18573      1.232       0.023       
2.18952      1.268       0.023       
2.19331      1.236       0.023       
2.19712      1.249       0.023       
2.20094      1.202       0.023       
2.20476      1.195       0.023       
2.2086       1.16        0.023       
2.21245      1.162       0.023       
2.21631      1.11        0.024       
2.22017      1.166       0.025       
2.22405      1.095       0.027       
2.22794      1.109       0.025       
2.23184      1.103       0.025       
2.23574      1.063       0.023       
2.23966      1.039       0.022       
2.24359      1.014       0.022       
2.24753      0.988       0.022       
2.25148      1.013       0.022       
2.25544      0.96        0.022       
2.25941      0.918       0.022       
2.26339      0.916       0.022       
2.26738      0.881       0.022       
2.27138      0.841       0.023       
2.27539      0.812       0.024       
2.27942      0.799       0.025       
2.28345      0.77        0.026       
2.2875       0.678       0.026       
2.29155      0.674       0.025       
2.29562      0.581       0.025       
2.29969      0.559       0.024       
2.30378      0.455       0.024       
2.30788      0.453       0.023       
2.31199      0.365       0.022       
2.31611      0.354       0.022       
2.32024      0.304       0.021       
2.32439      0.215       0.021       
2.32854      0.191       0.02        
2.3327       0.169       0.02        
2.33688      0.176       0.02        
2.34107      0.132       0.02        
2.34527      0.099       0.021       
2.34948      0.137       0.021       
2.3537       0.128       0.021       
2.35793      0.121       0.021       
2.36218      0.163       0.021       
2.36643      0.16        0.022       
2.3707       0.214       0.023       
2.37498      0.217       0.023       
2.37927      0.264       0.022       
2.38357      0.345       0.022       
2.38789      0.37        0.022       
2.39221      0.404       0.021       
2.39655      0.449       0.021       
2.4009       0.534       0.021       
2.40526      0.525       0.021       
2.40963      0.58        0.021       
2.41402      0.634       0.022       
2.41841      0.668       0.021       
2.42282      0.704       0.022       
2.42724      0.721       0.022       
2.43168      0.752       0.022       
2.43612      0.795       0.022       
2.44058      0.809       0.022       
2.44505      0.847       0.023       
2.44953      0.855       0.024       
2.45403      0.902       0.026       
2.45853      0.906       0.028       
2.46305      0.946       0.028       
2.46758      0.934       0.028       
2.47213      0.96        0.027       
2.47669      0.99        0.028       
2.48126      1.013       0.03        
2.48584      1.002       0.032       
2.49043      0.984       0.034       
2.49504      0.978       0.036       
2.49966      0.97        0.035       
2.50429      0.958       0.032       
2.50894      0.996       0.032       
2.5136       1.006       0.03        
2.51827      1.067       0.03        
2.52296      1.01        0.03        
2.52766      1.03        0.03        
2.53237      1.015       0.03        
2.53709      1.029       0.03        
2.54183      1.078       0.03        
2.54658      1.066       0.03        
2.55135      1.147       0.03        
2.55613      1.037       0.03        
2.56092      1.044       0.03        
2.56572      1.123       0.03        
2.57054      1.045       0.03        
2.57537      1.056       0.03        
2.58022      1.041       0.03        
2.58508      1.1         0.03        
2.58995      1.077       0.03        
2.59484      1.072       0.03        
2.59974      1.091       0.03        
2.60466      1.138       0.03        
2.60958      1.056       0.03        
2.61453      1.107       0.029       
2.61948      1.071       0.029       
2.62446      1.078       0.029       
2.62944      1.037       0.028       
2.63444      1.093       0.029       
2.63945      1.074       0.029       
2.64448      1.108       0.029       
2.64953      1.083       0.03        
2.65458      1.136       0.031       
2.65965      1.12        0.031       
2.66474      1.053       0.03        
2.66984      1.064       0.03        
2.67496      1.083       0.027       
2.68009      1.129       0.027       
2.68523      1.045       0.027       
2.69039      1.072       0.03        
2.69557      1.109       0.03        
2.70076      1.08        0.03        
2.70596      1.12        0.03        
2.71118      1.11        0.03        
2.71642      1.057       0.03        
2.72167      1.138       0.029       
2.72693      1.038       0.027       
2.73221      1.066       0.027       
2.73751      1.098       0.029       
2.74282      1.072       0.029       
2.74815      1.124       0.029       
2.75349      1.007       0.03        
2.75885      1.081       0.029       
2.76422      1.069       0.03        
2.76961      1.091       0.03        
2.77502      1.134       0.031       
2.78044      1.134       0.031       
2.78588      1.108       0.031       
2.79133      1.104       0.031       
2.7968       1.032       0.03        
2.80228      1.066       0.031       
2.80779      1.074       0.031       
2.8133       1.06        0.031       
2.81884      1.075       0.031       
2.82439      1.075       0.032       
2.82996      1.054       0.033       
2.83554      1.114       0.035       
2.84114      1.063       0.035       
2.84676      1.124       0.035       
2.85239      1.066       0.037       
2.85804      1.131       0.037       
2.86371      1.057       0.036       
2.86939      1.092       0.035       
2.87509      1.138       0.033       
2.88081      1.124       0.031       
2.88654      1.096       0.03        
2.8923       1.146       0.03        
2.89807      1.118       0.03        
2.90385      1.027       0.03        
2.90966      1.043       0.03        
2.91548      1.131       0.029       
2.92132      1.128       0.03        
2.92717      1.12        0.031       
2.93305      1.13        0.031       
2.93894      1.144       0.031       
2.94485      1.093       0.03        
2.95078      1.165       0.029       
2.95672      1.135       0.027       
2.96269      1.113       0.027       
2.96867      1.111       0.027       
2.97467      1.181       0.027       
2.98069      1.14        0.029       
2.98672      1.157       0.029       
2.99278      1.187       0.031       
2.99885      1.25        0.032       
3.00494      1.249       0.034       
3.01105      1.259       0.035       
3.01718      1.22        0.035       
3.02333      1.269       0.034       
3.0295       1.245       0.034       
3.03568      1.252       0.033       
3.04189      1.321       0.034       
3.04811      1.343       0.034       
3.05435      1.351       0.034       
3.06062      1.388       0.034       
3.0669       1.379       0.034       
3.0732       1.35        0.032       
3.07952      1.392       0.032       
3.08586      1.484       0.033       
3.09222      1.464       0.034       
3.0986       1.51        0.037       
3.10499      1.578       0.039       
3.11141      1.671       0.04        
3.11785      1.646       0.039       
3.12431      1.751       0.04        
3.13079      1.701       0.04        
3.13729      1.772       0.044       
3.14381      1.808       0.045       
3.15035      1.965       0.043       
3.15691      2.034       0.041       
3.16349      2.065       0.041       
3.17009      2.109       0.041       
3.17671      2.186       0.041       
3.18336      2.232       0.04        
3.19002      2.327       0.041       
3.1967       2.465       0.043       
3.20341      2.676       0.046       
3.21014      2.769       0.048       
3.21689      2.739       0.049       
3.22366      2.798       0.052       
3.23045      2.863       0.054       
3.23726      2.989       0.057       
3.24409      2.875       0.052       
3.25095      2.913       0.052       
3.25783      3.093       0.052       
3.26473      3.068       0.052       
3.27165      3.085       0.052       
3.27859      3.196       0.055       
3.28556      3.172       0.053       
3.29255      3.17        0.053       
3.29956      3.052       0.05        
3.30659      3.179       0.053       
3.31364      3.262       0.053       
3.32072      3.205       0.053       
3.32782      3.287       0.055       
3.33495      3.142       0.053       
3.34209      3.295       0.055       
3.34926      3.217       0.056       
3.35646      3.237       0.055       
3.36367      3.099       0.053       
3.37091      3.248       0.057       
3.37817      3.142       0.056       
3.38546      3.163       0.055       
3.39277      3.191       0.055       
3.4001       3.062       0.053       
3.40746      3.156       0.055       
3.41484      3.102       0.055       
3.42225      3.096       0.057       
3.42968      3.322       0.061       
3.43713      3.277       0.057       
3.44461      3.334       0.057       
3.45211      3.142       0.055       
3.45964      3.068       0.053       
3.46719      2.99        0.053       
3.47477      3.          0.052       
3.48237      3.092       0.053       
3.49         3.055       0.053       
3.49765      3.089       0.055       
3.50533      3.106       0.057       
3.51303      2.963       0.053       
3.52076      3.058       0.053       
3.52851      3.063       0.055       
3.53629      3.066       0.055       
3.5441       3.121       0.055       
3.55193      3.16        0.055       
3.55978      3.108       0.053       
3.56767      3.051       0.053       
3.57558      3.128       0.055       
3.58351      3.121       0.052       
3.59148      2.988       0.05        
3.59946      3.012       0.05        
3.60748      3.102       0.048       
3.61552      3.058       0.046       
3.62359      2.988       0.046       
3.63169      3.037       0.047       
3.63981      3.141       0.048       
3.64796      3.125       0.048       
3.65614      3.081       0.047       
3.66435      3.107       0.048       
3.67258      3.064       0.048       
3.68084      3.124       0.048       
3.68913      3.053       0.048       
3.69745      3.008       0.05        
3.7058       3.056       0.05        
3.71417      3.082       0.051       
3.72258      3.067       0.051       
3.73101      3.207       0.055       
3.73947      3.212       0.056       
3.74796      3.573       0.065       
3.75647      4.112       0.078       
3.76502      4.298       0.084       
3.7736       3.957       0.077       
3.7822       3.389       0.064       
3.79084      3.064       0.057       
3.7995       2.799       0.052       
3.8082       2.712       0.051       
3.81692      2.657       0.051       
3.82568      2.612       0.05        
3.83446      2.594       0.048       
3.84328      2.453       0.045       
3.85213      2.461       0.045       
3.861        2.375       0.043       
3.86991      2.424       0.043       
3.87885      2.329       0.043       
3.88782      2.353       0.043       
3.89682      2.375       0.045       
3.90585      2.287       0.045       
3.91491      2.283       0.047       
3.92401      2.298       0.049       
3.93314      2.294       0.049       
3.94229      2.194       0.049       
3.95149      2.271       0.049       
3.96071      2.216       0.047       
3.96996      2.151       0.045       
3.97925      2.122       0.045       
3.98857      2.126       0.044       
3.99793      2.045       0.044       
4.00731      1.958       0.043       
4.01673      1.815       0.043       
4.02619      1.635       0.042       
4.03567      1.664       0.042       
4.04519      1.468       0.041       
4.05475      1.381       0.04        
4.06434      1.33        0.038       
4.07396      1.264       0.036       
4.08362      1.228       0.034       
4.09331      1.213       0.034       
4.10303      1.148       0.034       
4.11279      1.241       0.036       
4.12259      1.248       0.036       
4.13242      1.354       0.036       
4.14228      1.493       0.037       
4.15218      1.718       0.038       
4.16212      1.963       0.041       
4.17209      2.124       0.042       
4.1821       2.206       0.043       
4.19215      2.178       0.045       
4.20223      2.134       0.051       
4.21235      1.881       0.05        
4.2225       1.8         0.049       
4.23269      1.779       0.048       
4.24292      1.732       0.046       
4.25318      1.572       0.044       
4.26349      1.449       0.043       
4.27383      1.647       0.046       
4.2842       1.735       0.045       
4.29462      2.115       0.049       
4.30507      2.335       0.052       
4.31557      2.692       0.056       
4.3261       2.905       0.06        
4.33667      2.875       0.061       
4.34728      2.714       0.059       
4.35792      2.526       0.055       
4.36861      2.324       0.05        
4.37934      2.226       0.047       
4.3901       2.068       0.045       
4.40091      2.032       0.046       
4.41175      1.89        0.046       
4.42264      1.928       0.046       
4.43356      1.903       0.045       
4.44453      1.737       0.044       
4.45554      1.512       0.042       
4.46659      1.518       0.042       
4.47768      1.392       0.041       
4.48881      1.323       0.042       
4.49998      1.439       0.043       
4.5112       1.469       0.044       
4.52245      1.556       0.046       
4.53375      1.57        0.044       
4.5451       1.548       0.042       
4.55648      1.364       0.04        
4.56791      1.351       0.038       
4.57938      1.338       0.038       
4.59089      1.329       0.038       
4.60245      1.444       0.04        
4.61405      1.35        0.041       
4.6257       1.38        0.042       
4.63739      1.257       0.042       
4.64912      1.244       0.042       
4.6609       1.066       0.041       
4.67272      1.039       0.038       
4.68459      1.045       0.039       
4.69651      1.019       0.039       
4.70847      0.935       0.038       
4.72047      0.951       0.038       
4.73252      0.968       0.039       
4.74462      0.949       0.041       
4.75677      0.966       0.043       
4.76896      1.052       0.043       
4.7812       1.044       0.043       
4.79348      1.205       0.042       
4.80582      1.29        0.042       
4.8182       1.498       0.042       
4.83063      1.71        0.044       
4.84311      1.824       0.045       
4.85563      1.629       0.046       
4.86821      1.491       0.043       
4.88083      1.445       0.041       
4.8935       1.332       0.04        
4.90623      1.192       0.038       
4.919        1.078       0.037       
4.93182      1.036       0.037       
4.9447       1.057       0.035       
4.95762      0.953       0.035       
4.97059      0.981       0.035       
4.98362      0.961       0.035       
4.9967       0.969       0.036       
5.00983      1.047       0.037       
5.02301      1.143       0.036       
5.03624      1.32        0.038       
5.04952      1.371       0.038       
5.06286      1.584       0.04        
5.07625      1.763       0.044       
5.0897       1.998       0.046       
5.1032       2.177       0.049       
5.11675      2.446       0.053       
5.13036      2.411       0.053       
5.14402      2.029       0.05        
5.15773      1.629       0.046       
5.1715       1.455       0.041       
5.18533      1.352       0.04        
5.19921      1.237       0.038       
5.21315      1.222       0.038       
5.22714      1.216       0.036       
5.24119      1.193       0.035       
5.2553       1.102       0.035       
5.26947      1.116       0.033       
5.28369      1.135       0.034       
5.29797      1.06        0.033       
5.31231      1.021       0.033       
5.3267       0.997       0.032       
5.34116      0.968       0.032       
5.35567      1.042       0.031       
5.37025      1.102       0.031       
5.38488      1.062       0.031       
5.39957      0.976       0.032       
5.41433      0.989       0.031       
5.42914      0.962       0.03        
5.44402      0.972       0.03        
5.45896      1.027       0.03        
5.47395      1.028       0.031       
5.48902      0.983       0.032       
5.50414      1.071       0.033       
5.51933      1.089       0.033       
5.53457      1.149       0.033       
5.54989      1.264       0.034       
5.56526      1.376       0.035       
5.58071      1.485       0.035       
5.59621      1.624       0.037       
5.61178      1.707       0.038       
5.62742      1.738       0.038       
5.64312      1.859       0.039       
5.65889      1.859       0.039       
5.67472      1.69        0.04        
5.69062      1.646       0.04        
5.70659      1.526       0.039       
5.72262      1.419       0.038       
5.73872      1.345       0.035       
5.7549       1.297       0.035       
5.77114      1.244       0.034       
5.78744      1.257       0.034       
5.80382      1.17        0.034       
5.82027      1.199       0.034       
5.83679      1.135       0.034       
5.85338      1.167       0.034       
5.87004      1.214       0.034       
5.88677      1.387       0.034       
5.90357      1.518       0.033       
5.92045      1.569       0.035       
5.9374       1.323       0.032       
5.95442      1.07        0.031       
5.97151      1.05        0.03        
5.98868      1.096       0.031       
6.00593      1.145       0.031       
6.02324      1.14        0.031       
6.04064      1.123       0.031       
6.05811      1.116       0.031       
6.07565      1.176       0.031       
6.09327      1.149       0.03        
6.11097      1.027       0.027       
6.12875      0.936       0.027       
6.1466       0.951       0.027       
6.16454      0.912       0.027       
6.18255      0.875       0.028       
6.20064      0.926       0.027       
6.21881      0.893       0.03        
6.23706      0.821       0.03        
6.25539      0.896       0.03        
6.2738       0.918       0.03        
6.2923       0.867       0.028       
6.31088      0.864       0.027       
6.32953      0.916       0.027       
6.34828      0.996       0.027       
6.3671       1.104       0.029       
6.38601      1.253       0.03        
6.40501      1.279       0.03        
6.42409      1.103       0.029       
6.44325      0.856       0.027       
6.46251      0.743       0.026       
6.48184      0.727       0.025       
6.50127      0.664       0.025       
6.52078      0.628       0.025       
6.54039      0.751       0.026       
6.56008      0.82        0.026       
6.57986      0.897       0.025       
6.59973      0.902       0.026       
6.61969      0.982       0.026       
6.63974      1.002       0.027       
6.65988      1.06        0.03        
6.68012      0.999       0.03        
6.70045      1.049       0.03        
6.72087      1.102       0.03        
6.74138      1.06        0.029       
6.76199      1.115       0.029       
6.7827       1.215       0.029       
6.8035       1.334       0.03        
6.82439      1.274       0.029       
6.84539      1.081       0.029       
6.86648      0.958       0.027       
6.88766      0.879       0.027       
6.90895      0.869       0.026       
6.93034      0.847       0.026       
6.95182      0.873       0.026       
6.97341      0.846       0.026       
6.9951       0.942       0.027       
7.01689      0.957       0.027       
7.03878      0.992       0.027       
7.06077      0.95        0.027       
7.08287      1.004       0.027       
7.10507      1.027       0.025       
7.12738      1.032       0.025       
7.14979      1.188       0.027       
7.17231      1.281       0.029       
7.19494      1.519       0.031       
7.21767      1.601       0.031       
7.24051      1.492       0.031       
7.26347      1.422       0.03        
7.28653      1.395       0.03        
7.3097       1.396       0.03        
7.33298      1.319       0.029       
7.35638      1.306       0.029       
7.37988      1.321       0.029       
7.4035       1.236       0.026       
7.42724      1.243       0.026       
7.45109      1.189       0.026       
7.47505      1.087       0.025       
7.49913      1.14        0.025       
7.52333      1.11        0.025       
7.54764      1.133       0.025       
7.57208      1.125       0.025       
7.59663      1.114       0.025       
7.62131      1.175       0.025       
7.6461       1.217       0.025       
7.67102      1.269       0.026       
7.69606      1.268       0.025       
7.72122      1.327       0.026       
7.7465       1.339       0.026       
7.77191      1.315       0.026       
7.79745      1.435       0.028       
7.82311      1.434       0.028       
7.84891      1.454       0.028       
7.87482      1.351       0.028       
7.90087      1.279       0.028       
7.92705      1.129       0.026       
7.95336      1.015       0.025       
7.9798       0.924       0.025       
8.00637      0.854       0.024       
8.03308      0.88        0.024       
8.05992      0.908       0.024       
8.0869       0.985       0.024       
8.11401      0.991       0.024       
8.14126      1.084       0.025       
8.16865      1.232       0.026       
8.19618      1.218       0.026       
8.22385      1.353       0.028       
8.25165      1.369       0.028       
8.2796       1.347       0.028       
8.3077       1.307       0.029       
8.33593      1.318       0.029       
8.36432      1.292       0.029       
8.39284      1.27        0.029       
8.42152      1.23        0.029       
8.45034      1.153       0.029       
8.47931      1.183       0.029       
8.50843      1.13        0.027       
8.5377       1.081       0.027       
8.56713      1.151       0.027       
8.59671      1.175       0.029       
8.62644      1.224       0.029       
8.65632      1.173       0.029       
8.68637      1.319       0.029       
8.71657      1.425       0.03        
8.74693      1.404       0.028       
8.77744      1.379       0.029       
8.80812      1.352       0.029       
8.83896      1.254       0.029       
8.86997      1.239       0.029       
8.90114      1.08        0.029       
8.93247      1.085       0.029       
8.96397      1.132       0.029       
8.99564      1.258       0.029       
9.02747      1.304       0.03        
9.05948      1.304       0.03        
9.09166      1.245       0.029       
9.12401      1.261       0.029       
9.15653      1.105       0.027       
9.18923      1.075       0.027       
9.22211      1.049       0.027       
9.25516      1.078       0.027       
9.2884       1.08        0.027       
9.32181      1.07        0.029       
9.3554       1.166       0.029       
9.38918      1.221       0.029       
9.42314      1.15        0.031       
9.45729      1.141       0.031       
9.49162      1.186       0.03        
9.52614      1.229       0.03        
9.56085      1.203       0.03        
9.59576      1.207       0.029       
9.63085      1.197       0.03        
9.66614      1.258       0.03        
9.70162      1.253       0.031       
9.73731      1.3         0.032       
9.77318      1.305       0.031       
9.80926      1.334       0.032       
9.84554      1.256       0.032       
9.88203      1.305       0.032       
9.91871      1.279       0.032       
9.95561      1.284       0.032       
9.99271      1.274       0.033       
10.03        1.384       0.033       
10.0675      1.385       0.033       
10.1053      1.365       0.033       
10.1432      1.436       0.033       
10.1814      1.47        0.033       
10.2198      1.467       0.035       
10.2583      1.383       0.033       
10.2972      1.348       0.034       
10.3362      1.341       0.034       
10.3755      1.37        0.033       
10.415       1.256       0.034       
10.4547      1.282       0.032       
10.4946      1.273       0.032       
10.5348      1.308       0.032       
10.5752      1.241       0.032       
10.6158      1.16        0.033       
10.6567      1.14        0.033       
10.6978      1.218       0.033       
10.7392      1.21        0.033       
10.7808      1.196       0.034       
10.8226      1.352       0.034       
10.8647      1.348       0.034       
10.907       1.423       0.035       
10.9496      1.438       0.037       
10.9924      1.443       0.037       
11.0355      1.591       0.037       
11.0789      1.609       0.037       
11.1225      1.694       0.038       
11.1663      1.622       0.038       
11.2104      1.691       0.038       
11.2548      1.639       0.038       
11.2995      1.52        0.039       
11.3444      1.681       0.04        
11.3896      1.634       0.04        
11.435       1.687       0.04        
11.4808      1.714       0.041       
11.5268      1.704       0.041       
11.5731      1.791       0.043       
11.6196      1.767       0.043       
11.6665      1.662       0.042       
11.7136      1.669       0.044       
11.7611      1.669       0.044       
11.8088      1.772       0.043       
11.8568      1.698       0.041       
11.9051      1.693       0.041       
11.9537      1.686       0.042       
12.0026      1.655       0.042       
12.0518      1.447       0.042       
12.1013      1.605       0.042       
12.1511      1.481       0.042       
12.2013      1.55        0.042       
12.2517      1.489       0.042       
12.3024      1.571       0.044       
12.3535      1.498       0.044       
12.4049      1.633       0.046       
12.4566      1.585       0.044       
12.5087      1.583       0.046       
12.5611      1.568       0.046       
12.6138      1.528       0.046       
12.6668      1.546       0.046       
12.7202      1.546       0.048       
12.7739      1.584       0.048       
12.828       1.602       0.048       
12.8824      1.669       0.049       
12.9371      1.596       0.049       
12.9922      1.603       0.049       
13.0477      1.563       0.048       
13.1035      1.537       0.048       
13.1597      1.633       0.05        
13.2163      1.601       0.049       
13.2732      1.591       0.051       
13.3305      1.532       0.051       
13.3881      1.587       0.053       
13.4462      1.528       0.051       
13.5046      1.652       0.053       
13.5634      1.645       0.053       
13.6226      1.578       0.053       
13.6822      1.583       0.053       
13.7422      1.602       0.055       
13.8026      1.624       0.056       
13.8633      1.647       0.056       
13.9245      1.621       0.056       
13.9861      1.662       0.057       
14.0481      1.569       0.057       
14.1105      1.712       0.056       
14.1734      1.592       0.057       
14.2367      1.555       0.057       
14.3003      1.526       0.057       
14.3645      1.556       0.059       
14.429       1.676       0.06        
14.494       1.638       0.059       
14.5595      1.658       0.059       
14.6254      1.705       0.062       
14.6917      1.59        0.06        
14.7585      1.699       0.062       
14.8258      1.729       0.063       
14.8935      1.797       0.066       
14.9617      1.749       0.063       
15.0304      1.745       0.065       
15.0995      1.759       0.065       
15.1691      1.738       0.065       
15.2393      1.659       0.064       
15.3099      1.59        0.066       
15.381       1.55        0.066       
15.4526      1.563       0.068       
15.5247      1.746       0.067       
15.5973      1.563       0.066       
15.6704      1.634       0.067       
15.7441      1.649       0.067       
15.8182      1.743       0.068       
15.893       1.625       0.069       
15.9682      1.598       0.069       
16.044       1.615       0.069       
16.1203      1.434       0.069       
16.1972      1.453       0.069       
16.2746      1.499       0.07        
16.3526      1.416       0.07        
16.4312      1.561       0.071       
16.5103      1.737       0.074       
16.59        1.579       0.073       
16.6703      1.624       0.077       
16.7512      1.499       0.076       
16.8327      1.614       0.073       
16.9147      1.631       0.076       
16.9974      1.695       0.078       
17.0807      1.668       0.079       
17.1647      1.713       0.079       
17.2492      1.576       0.079       
17.3344      1.502       0.079       
17.4202      1.678       0.082       
17.5067      1.67        0.082       
17.5938      1.583       0.08        
17.6816      1.758       0.083       
17.77        1.595       0.082       
17.8591      1.615       0.082       
17.9489      1.581       0.082       
18.0394      1.537       0.082       
18.1305      1.42        0.083       
18.2224      1.532       0.085       
18.315       1.648       0.084       
18.4083      1.589       0.084       
18.5023      1.672       0.087       
18.597       1.697       0.086       
18.6925      1.647       0.089       
18.7887      1.529       0.088       
18.8857      1.81        0.091       
18.9834      1.719       0.09        
19.0819      1.809       0.091       
19.1812      1.762       0.092       
19.2812      1.646       0.091       
19.382       1.743       0.092       
19.4837      1.703       0.094       
19.5862      1.468       0.091       
19.6895      1.669       0.094       
19.7936      1.751       0.092       
19.8985      1.543       0.094       
20.0043      1.688       0.094       
20.111       1.845       0.098       
20.2185      1.634       0.094       
20.3269      1.484       0.096       
20.4361      1.72        0.1         
20.5463      1.78        0.102       
20.6574      1.753       0.101       
20.7693      1.884       0.103       
20.8822      1.863       0.101       
20.996       1.554       0.098       
21.1108      1.624       0.1         
21.2265      1.699       0.103       
21.3433      1.626       0.102       
21.4609      1.454       0.1         
21.5796      1.824       0.104       
21.6992      1.697       0.102       
21.8199      1.741       0.101       
21.9416      1.625       0.1         
22.0643      1.65        0.102       
22.1881      1.6         0.106       
22.3129      1.606       0.104       
22.4388      1.763       0.106       
22.5658      1.696       0.106       
22.6938      1.69        0.105       
22.823       1.689       0.109       
22.9533      1.56        0.106       
23.0847      1.734       0.109       
23.2173      1.594       0.107       
23.351       1.676       0.111       
23.4859      1.411       0.108       
23.622       1.814       0.109       
23.7593      1.634       0.105       
23.8978      1.549       0.106       
24.0375      1.514       0.105       
24.1785      1.745       0.11        
24.3208      1.448       0.111       
24.4643      1.578       0.114       
24.6091      1.597       0.113       
24.7552      1.761       0.115       
24.9026      1.651       0.113       
25.0514      1.539       0.11        
25.2015      1.664       0.111       
25.353       1.894       0.115       
25.5059      1.523       0.11        
25.6602      1.367       0.111       
25.8159      1.483       0.116       
25.9731      1.558       0.114       
26.1317      1.765       0.119       
26.2918      1.507       0.112       
26.4534      1.706       0.114       
26.6165      1.642       0.116       
26.7811      1.554       0.119       
26.9473      1.831       0.124       
27.1151      1.517       0.118       
27.2844      1.583       0.119       
27.4554      1.5         0.116       
27.628       1.823       0.12        
27.8023      1.471       0.114       
27.9783      1.654       0.12        
28.1559      1.858       0.125       
28.3353      1.517       0.118       
28.5164      1.795       0.124       
28.6993      1.713       0.121       
28.884       1.57        0.117       
29.0705      1.653       0.122       
29.2588      1.825       0.121       
29.449       1.379       0.114       
29.6411      1.552       0.12        
29.8351      1.42        0.122       
30.031       1.509       0.123       
30.2289      1.508       0.118       
30.4289      1.541       0.121       
30.6308      1.492       0.121       
30.8347      1.494       0.118       
31.0408      1.744       0.121       
31.2489      1.646       0.125       
31.4593      1.39        0.119       
31.6717      1.446       0.121       
31.8864      1.594       0.124       
32.1033      1.627       0.12        
32.3224      1.519       0.121       
32.5438      1.729       0.123       
32.7676      1.328       0.116       
32.9937      1.369       0.12        
33.2222      1.489       0.123       
33.4531      1.269       0.123       
33.6865      1.572       0.12        
33.9224      1.488       0.118       
34.1608      1.632       0.122       
34.4017      1.571       0.123       
34.6453      1.772       0.124       
34.8916      1.645       0.125       
35.1405      1.443       0.124       
35.3921      1.582       0.127       
35.6465      1.593       0.124       
35.9037      1.486       0.12        
36.1637      1.303       0.117       
36.4267      1.44        0.122       
36.6925      1.687       0.124       
36.9614      1.492       0.123       
37.2332      1.448       0.124       
37.5082      1.403       0.129       
37.7862      1.356       0.123       
38.0675      1.471       0.128       
38.3519      1.809       0.129       
38.6396      1.682       0.124       
38.9306      1.349       0.123       
39.225       1.394       0.129       
39.5228      1.333       0.129       
39.8241      1.27        0.125       
40.1289      1.543       0.125       
40.4373      1.533       0.127       
40.7493      1.269       0.118       
41.065       1.22        0.121       
41.3846      1.391       0.124       
41.7079      1.342       0.125       
42.0351      1.468       0.133       
42.3663      1.205       0.135       
42.7015      1.59        0.138       
43.0408      1.464       0.131       
43.3842      1.293       0.127       
43.7318      1.524       0.132       
44.0838      1.172       0.128       
44.4401      1.424       0.138       
44.8008      1.428       0.14        
45.1661      1.461       0.141       
45.5359      1.481       0.142       
45.9104      1.535       0.141       
46.2897      1.384       0.142       
46.6738      1.605       0.145       
47.0628      1.589       0.139       
47.4569      1.505       0.155       
47.856       1.301       0.153       
48.2603      1.155       0.149       
48.6699      1.13        0.145       
